%OpenBCI Raw EXG Data
%Number of channels = 16
%Sample Rate = 125 Hz
%Board = OpenBCI_GUI$BoardCytonSerialDaisy
Sample Index, EXG Channel 0, EXG Channel 1, EXG Channel 2, EXG Channel 3, EXG Channel 4, EXG Channel 5, EXG Channel 6, EXG Channel 7, EXG Channel 8, EXG Channel 9, EXG Channel 10, EXG Channel 11, EXG Channel 12, EXG Channel 13, EXG Channel 14, EXG Channel 15, Accel Channel 0, Accel Channel 1, Accel Channel 2, Not Used, Digital Channel 0 (D11), Digital Channel 1 (D12), Digital Channel 2 (D13), Digital Channel 3 (D17), Not Used, Digital Channel 4 (D18), Analog Channel 0, Analog Channel 1, Analog Channel 2, Timestamp, Marker Channel, Timestamp (Formatted)
0.0, -5951.017850758773, -7390.671359380646, -41739.871113284964, -18600.58529383961, -6078.042814498283, -16685.39842193108, -6854.877693042481, -28987.128017798426, -14486.590264629158, -17108.67340668123, -32993.164121289745, -40831.809143043654, 1642.6520517649712, -29283.60155625362, -6916.479100761307, -30041.973893877734, 0.134, 0.978, 0.052000000000000005, 192.0, 2.0, 24.0, 15.0, 72.0, 0.5, 80.0, 0.0, 0.0, 0.0, 1.7417668498594587E9, 0.0, 2025-03-12 17:07:29.859
2.0, -11922.711065138707, -14792.585646222311, -83217.08687747561, -37261.542649453004, -12184.40528922144, -33417.75785896276, -13652.601975512742, -58003.31330338876, -36236.17872431025, -40227.21680727206, -71295.49339955967, -86971.39763491126, -11428.379884765136, -68181.38130681292, -16018.958809251644, -57351.75995251656, 0.134, 0.978, 0.052000000000000005, 192.0, 0.0, 0.0, 0.0, 0.0, 0.0, 0.0, 0.0, 0.0, 0.0, 1.7417668498595293E9, 0.0, 2025-03-12 17:07:29.859
4.0, -11881.762669296584, -14779.286358271404, -83699.34811584331, -37173.677941999194, -12258.769543024247, -33328.48499160826, -13992.639063911327, -57922.489395438366, -36617.49948471779, -40131.14900960315, -71208.32159618397, -86879.1072820553, -11523.106577766726, -68109.20752396673, -16143.52508110107, -57274.065288789905, 0.134, 0.978, 0.052000000000000005, 192.0, 0.0, 0.0, 0.0, 0.0, 0.0, 0.0, 0.0, 0.0, 0.0, 1.7417668498595672E9, 0.0, 2025-03-12 17:07:29.859
6.0, -11912.250448733623, -14783.197913551083, -83257.09650005061, -37270.59510595741, -12171.642443137462, -33416.41675429544, -13913.066853650434, -58010.33175114772, -36272.85793696141, -40208.10606576277, -71287.44677155575, -86956.8242975264, -11424.781253907831, -68169.13255085141, -16115.540697043027, -57330.36933307283, 0.131, 0.98, 0.05, 192.0, 2.0, 0.0, 15.0, 88.0, 0.5, 64.0, 0.0, 0.0, 0.0, 1.74176684985959E9, 0.0, 2025-03-12 17:07:29.859
8.0, -11878.231093672644, -14778.414640237646, -83757.48500317158, -37190.59821255186, -12286.731575337837, -33329.6696340644, -14307.351625842051, -57928.3232007412, -36569.733806816796, -40140.89437018566, -71227.85702083791, -86901.34726778833, -11536.830548862285, -68137.2813150026, -16193.257712514129, -57291.85727737633, 0.131, 0.98, 0.05, 192.0, 0.0, 0.0, 0.0, 0.0, 0.0, 0.0, 0.0, 0.0, 0.0, 1.741766849859613E9, 0.0, 2025-03-12 17:07:29.859
10.0, -11904.248524218623, -14772.983166335007, -83311.32183209919, -37271.533879224524, -12159.438390664864, -33406.58198673511, -14240.00581979821, -58022.46874838696, -36328.49142891067, -40173.72908279051, -71274.03572488257, -86945.40255610974, -11407.413948466057, -68157.30847803455, -16194.621168925903, -57312.39853053076, 0.131, 0.98, 0.05, 192.0, 0.0, 0.0, 0.0, 0.0, 0.0, 0.0, 0.0, 0.0, 0.0, 1.741766849859635E9, 0.0, 2025-03-12 17:07:29.859
12.0, -11897.87827704886, -14806.756652206977, -83811.24094858658, -37226.29394844698, -12305.015302302278, -33350.07677675209, -14607.490850387914, -57950.51848298532, -36523.868027194505, -40119.235529808466, -71249.87348912639, -86917.95461391863, -11531.779054615386, -68153.50868147715, -16226.87473617491, -57296.34997801185, 0.131, 0.98, 0.05, 192.0, 0.0, 0.0, 0.0, 0.0, 0.0, 0.0, 0.0, 0.0, 0.0, 1.7417668498596573E9, 0.0, 2025-03-12 17:07:29.859
14.0, -11908.40594868731, -14787.623558953233, -83364.94366704747, -37290.28699282253, -12158.901948797937, -33426.47503930033, -14492.692290865458, -58033.845786314705, -36392.931508175316, -40139.35209981824, -71290.93364369079, -86956.64548357076, -11427.843442898207, -68171.50183576367, -16246.45486431776, -57316.39949278826, 0.131, 0.98, 0.05, 192.0, 0.0, 0.0, 0.0, 0.0, 0.0, 0.0, 0.0, 0.0, 0.0, 1.7417668498596783E9, 0.0, 2025-03-12 17:07:29.859
16.0, -11882.2544076746, -14798.911189903163, -83833.30212036397, -37224.52816063502, -12298.153316754499, -33356.51407915522, -14790.6410444547, -57942.829482892696, -36468.21218350079, -40097.39787547563, -71259.48473924217, -86924.6154337663, -11528.180423758082, -68157.26377454564, -16222.717311706223, -57300.73091992509, 0.1315, 0.979, 0.049, 192.0, 2.0, 16.0, 15.0, 72.0, 0.5, 64.0, 0.0, 0.0, 0.0, 1.7417668498597E9, 0.0, 2025-03-12 17:07:29.859
18.0, -11911.401082444321, -14791.512762488457, -83411.77057168134, -37298.84771094891, -12129.084721694557, -33440.42252784044, -14624.522879662858, -58056.39869647011, -36443.44645064431, -40104.01399183441, -71277.88022492889, -86944.55318982044, -11432.805530167287, -68162.1364548369, -16263.822169759533, -57302.49670773706, 0.1315, 0.979, 0.049, 192.0, 0.0, 0.0, 0.0, 0.0, 0.0, 0.0, 0.0, 0.0, 0.0, 1.7417668498597236E9, 0.0, 2025-03-12 17:07:29.859
20.0, -11893.363224668889, -14805.348492306292, -83808.22346308512, -37250.94792258119, -12295.67227311996, -33336.53161961217, -14842.206518913094, -57969.36100356114, -36412.221063640245, -40105.91389011311, -71283.0211261536, -86955.3267306479, -11532.85193834924, -68187.01394641567, -16192.296587502551, -57323.86497543633, 0.1315, 0.979, 0.049, 192.0, 0.0, 0.0, 0.0, 0.0, 0.0, 0.0, 0.0, 0.0, 0.0, 1.7417668498597448E9, 0.0, 2025-03-12 17:07:29.859
22.0, -11913.16687025629, -14789.054070598373, -83454.93179022454, -37303.02748716206, -12141.624050333983, -33309.4636570768, -14685.252569347927, -58053.67178364656, -36504.645526962944, -40100.281250510365, -71280.56243426353, -86949.6717393007, -11460.208768869492, -68172.28414681961, -16251.8863382204, -57306.31885603892, 0.1315, 0.979, 0.049, 192.0, 0.0, 0.0, 0.0, 0.0, 0.0, 0.0, 0.0, 0.0, 0.0, 1.741766849859934E9, 0.0, 2025-03-12 17:07:29.859
24.0, -11916.162004013302, -14809.416509797158, -83747.56082863342, -37274.216088559166, -12298.801517343703, -33261.98855185373, -14851.124864950762, -57977.1841141205, -36354.419452478825, -40131.327823558786, -71304.16587640833, -86975.08567274638, -11544.541900699365, -68214.75246128469, -16140.060560710499, -57334.70557149716, 0.1315, 0.979, 0.049, 192.0, 0.0, 0.0, 0.0, 0.0, 0.0, 0.0, 0.0, 0.0, 0.0, 1.7417668498599567E9, 0.0, 2025-03-12 17:07:29.859
26.0, -11901.253390461612, -14774.59249193579, -83509.24652925093, -37292.879795179346, -12142.384009645464, -33291.24698534572, -14765.316517986837, -58039.32196370626, -36570.8290422951, -40084.50091892492, -71253.9638583617, -86927.87878845677, -11473.061021931295, -68160.41537051385, -16236.01659965713, -57273.48414343407, 0.13175, 0.9804999999999999, 0.0475, 192.0, 2.0, 16.0, 15.0, 88.0, 0.5, 56.0, 0.0, 0.0, 0.0, 1.741766849859979E9, 0.0, 2025-03-12 17:07:29.859
28.0, -11913.882126078859, -14803.917980661152, -83688.28400233794, -37295.4055423028, -12294.085299263634, -33275.51135724918, -14890.933321825663, -58000.76520452085, -36304.4186001323, -40147.84576271126, -71317.64397831488, -86995.1351875228, -11531.734351126475, -68236.70187433981, -16105.035377149032, -57346.75316175856, 0.13175, 0.9804999999999999, 0.0475, 192.0, 0.0, 0.0, 0.0, 0.0, 0.0, 0.0, 0.0, 0.0, 0.0, 1.7417668498600013E9, 0.0, 2025-03-12 17:07:29.860
30.0, -11902.326274195466, -14770.747991889477, -83569.95386719154, -37293.080960879444, -12165.383954689974, -33294.08565689155, -14878.148123997227, -58046.832149843234, -36623.355641765076, -40081.84106133474, -71248.0182943366, -86931.63388152527, -11498.474955376978, -68167.63498397291, -16232.55207926656, -57267.426820686684, 0.13175, 0.9804999999999999, 0.0475, 192.0, 0.0, 0.0, 0.0, 0.0, 0.0, 0.0, 0.0, 0.0, 0.0, 1.7417668498600233E9, 0.0, 2025-03-12 17:07:29.860
32.0, -11927.74020764115, -14801.235771326516, -83614.14326597968, -37322.11587692689, -12290.218447472866, -33297.974860426766, -14955.216938879126, -58021.50762337537, -36266.666503747285, -40161.90500997365, -71330.1386034654, -87015.85525463287, -11540.406827975134, -68259.0089153062, -16097.838115434422, -57347.7366385146, 0.13175, 0.9804999999999999, 0.0475, 192.0, 0.0, 0.0, 0.0, 0.0, 0.0, 0.0, 0.0, 0.0, 0.0, 1.741766849860049E9, 0.0, 2025-03-12 17:07:29.860
34.0, -11921.12409128238, -14781.16390480565, -83613.33860317929, -37318.181969902755, -12199.358606262042, -33299.83005521656, -15012.124480262339, -58051.63777490113, -36658.49258404882, -40094.24627950743, -71260.04353285355, -86945.33550087638, -11547.4252757341, -68193.5406557966, -16241.001038670665, -57276.38987021326, 0.13175, 0.9804999999999999, 0.0475, 192.0, 0.0, 0.0, 0.0, 0.0, 0.0, 0.0, 0.0, 0.0, 0.0, 1.7417668498600707E9, 0.0, 2025-03-12 17:07:29.860
36.0, -11918.955972070215, -14784.762535662954, -83561.99664616545, -37328.97786247467, -12270.370098396552, -33287.17896785486, -15051.999992370605, -58009.54944009179, -36255.87061117537, -40176.344236891775, -71335.57007736803, -87022.06903959144, -11531.935516826572, -68271.861168368, -16106.823516705457, -57352.16228391675, 0.12887500000000002, 0.97925, 0.04775, 192.0, 1.5, 120.0, 15.0, 72.0, 0.5, 64.0, 0.0, 0.0, 0.0, 1.741766849860093E9, 0.0, 2025-03-12 17:07:29.860
38.0, -11912.004579544615, -14772.558483190356, -83700.24218562152, -37303.988612173634, -12199.13508881749, -33275.176081082354, -15176.923892131317, -58039.38901893962, -36683.79475877223, -40052.4038138871, -71218.06695676649, -86903.9624218896, -11525.073531278793, -68163.76813218214, -16262.592823814492, -57234.41329412619, 0.12887500000000002, 0.97925, 0.04775, 192.0, 0.0, 0.0, 0.0, 0.0, 0.0, 0.0, 0.0, 0.0, 0.0, 1.741766849860116E9, 0.0, 2025-03-12 17:07:29.860
40.0, -11933.328143754978, -14789.724622932032, -83501.78104660286, -37364.89711581435, -12259.596557569093, -33303.40633432941, -15142.658667881331, -58059.282071504844, -36226.32160500546, -40191.163443465644, -71360.84990034699, -87044.53254276903, -11533.94717382755, -68297.67743321389, -16119.228734878152, -57368.791981791495, 0.12887500000000002, 0.97925, 0.04775, 192.0, 0.0, 0.0, 0.0, 0.0, 0.0, 0.0, 0.0, 0.0, 0.0, 1.7417668498601377E9, 0.0, 2025-03-12 17:07:29.860
42.0, -11925.236812262156, -14782.035622839407, -83743.33634893136, -37318.874873980865, -12244.106798661567, -33267.53178447864, -15324.22188809179, -58048.21795799947, -36691.9084420095, -40085.260878236404, -71254.41089325081, -86932.63971002576, -11582.29399708438, -68198.3462808545, -16258.770675512635, -57260.766000839, 0.12887500000000002, 0.97925, 0.04775, 192.0, 0.0, 0.0, 0.0, 0.0, 0.0, 0.0, 0.0, 0.0, 0.0, 1.7417668498601594E9, 0.0, 2025-03-12 17:07:29.860
44.0, -11936.256222278622, -14787.578855464322, -83447.35454885419, -37371.08854902846, -12262.994022726301, -33318.963148470306, -15258.619518115464, -58079.66686244808, -36256.69762572022, -40185.642562585184, -71361.72161838075, -87035.07775486443, -11540.652697164143, -68292.55888373363, -16135.500804841615, -57356.02913570752, 0.12887500000000002, 0.97925, 0.04775, 192.0, 0.0, 0.0, 0.0, 0.0, 0.0, 0.0, 0.0, 0.0, 0.0, 1.7417668498602169E9, 0.0, 2025-03-12 17:07:29.860
46.0, -11908.584762642951, -14777.833494881808, -83807.530559007, -37305.97791743016, -12288.0503282607, -33264.11196757698, -15518.838527064148, -58047.36859171017, -36699.73155256886, -40081.79635784583, -71251.34870426044, -86925.6659657557, -11601.069462426838, -68201.58728380052, -16267.26433840565, -57257.6144048708, 0.1294375, 0.977625, 0.050875000000000004, 192.0, 2.0, 8.0, 15.0, 64.0, 0.5, 88.0, 0.0, 0.0, 0.0, 1.7417668498602386E9, 0.0, 2025-03-12 17:07:29.860
48.0, -11922.152271527324, -14767.81991336583, -83427.14857186658, -37372.34024671796, -12257.294327890198, -33307.45200007582, -15424.268296273745, -58102.33153132576, -36281.73157951017, -40180.52401310492, -71352.78092059863, -87025.82413265994, -11525.297048723347, -68289.67550869889, -16174.079915771475, -57340.405266333255, 0.1294375, 0.977625, 0.050875000000000004, 192.0, 0.0, 0.0, 0.0, 0.0, 0.0, 0.0, 0.0, 0.0, 0.0, 1.741766849860262E9, 0.0, 2025-03-12 17:07:29.860
50.0, -11889.652835089308, -14747.926860800608, -83866.4497573912, -37294.57852775795, -12314.514793695784, -33229.109135759965, -15732.789424990347, -58028.05668450078, -36672.775348755764, -40071.3580931852, -71245.02316057959, -86915.18299760617, -11600.398910093178, -68194.47942906374, -16282.88820777991, -57242.61638434129, 0.1294375, 0.977625, 0.050875000000000004, 192.0, 0.0, 0.0, 0.0, 0.0, 0.0, 0.0, 0.0, 0.0, 0.0, 1.7417668498602839E9, 0.0, 2025-03-12 17:07:29.860
52.0, -11901.655721861807, -14733.085302482285, -83438.77147898334, -37364.5171361586, -12240.061132915156, -33294.59974701402, -15625.456348115964, -58100.3645778137, -36306.81023678902, -40141.72138473051, -71319.38741438239, -86989.4801961756, -11496.843278031742, -68240.38991217493, -16224.416044284826, -57298.451041990644, 0.1294375, 0.977625, 0.050875000000000004, 192.0, 0.0, 0.0, 0.0, 0.0, 0.0, 0.0, 0.0, 0.0, 0.0, 1.7417668498603058E9, 0.0, 2025-03-12 17:07:29.860
54.0, -11909.434128932255, -14767.194064521083, -83908.69455441172, -37318.07021118048, -12348.981183645867, -33249.98566508122, -15935.944430344634, -58052.509492934885, -36623.75797316527, -40095.34151498575, -71259.48473924217, -86934.09257341536, -11610.63600905371, -68219.96041774278, -16287.783239815622, -57251.065343745395, 0.1294375, 0.977625, 0.050875000000000004, 192.0, 0.0, 0.0, 0.0, 0.0, 0.0, 0.0, 0.0, 0.0, 0.0, 1.7417668498603275E9, 0.0, 2025-03-12 17:07:29.860
56.0, -11902.907419551304, -14735.25342169445, -83449.3438541107, -37379.895136343854, -12231.835690955602, -33312.92817746737, -15780.331585446786, -58120.458796079016, -36353.05599606705, -40158.21697213852, -71319.8791527604, -86995.3363532229, -11514.389397429157, -68264.23922350875, -16245.158463139353, -57293.8242308884, 0.12771875, 0.9748125, 0.051437500000000004, 192.0, 1.5, 120.0, 15.0, 48.0, 0.5, 80.0, 0.0, 0.0, 0.0, 1.7417668498603497E9, 0.0, 2025-03-12 17:07:29.860
58.0, -11879.348680895411, -14750.005573034952, -83941.64102573885, -37316.14796115732, -12348.78001794577, -33230.04790902709, -16056.375629469829, -58034.58339388173, -36573.66771384093, -40102.941108100546, -71255.30496302903, -86935.67954727168, -11612.044168954393, -68225.21307768978, -16267.465504105749, -57249.27720418897, 0.12771875, 0.9748125, 0.051437500000000004, 192.0, 0.0, 0.0, 0.0, 0.0, 0.0, 0.0, 0.0, 0.0, 0.0, 1.7417668498603723E9, 0.0, 2025-03-12 17:07:29.860
60.0, -11872.330233136445, -14719.71895929801, -83483.22909870495, -37378.48697644317, -12201.0796905851, -33291.202281856815, -15869.805618501381, -58107.85241220622, -36391.83627269701, -40156.45118432656, -71294.7781437371, -86975.75622508004, -11508.823813059786, -68252.37044720298, -16252.936870209798, -57272.09833527784, 0.12771875, 0.9748125, 0.051437500000000004, 192.0, 0.0, 0.0, 0.0, 0.0, 0.0, 0.0, 0.0, 0.0, 0.0, 1.741766849860394E9, 0.0, 2025-03-12 17:07:29.860
62.0, -11866.183503411236, -14743.836491565287, -83937.2153803367, -37327.52499908507, -12343.884985910057, -33221.26367345615, -16106.398833560806, -58030.425969413045, -36501.60568971702, -40129.80790493583, -71259.46238749771, -86940.70868977412, -11605.360997362257, -68241.55220288661, -16229.534593765093, -57249.54542512244, 0.12771875, 0.9748125, 0.051437500000000004, 192.0, 0.0, 0.0, 0.0, 0.0, 0.0, 0.0, 0.0, 0.0, 0.0, 1.7417668498604171E9, 0.0, 2025-03-12 17:07:29.860
64.0, -11894.570218869474, -14730.090168725274, -83487.18535747354, -37414.67445071632, -12203.851306897559, -33319.05255544812, -15890.793906544914, -58149.65017433765, -36443.73702332223, -40173.77378627942, -71307.47393458772, -86987.60264964135, -11527.532223168877, -68270.47536021177, -16245.471387561725, -57278.49093419206, 0.12771875, 0.9748125, 0.051437500000000004, 192.0, 0.0, 0.0, 0.0, 0.0, 0.0, 0.0, 0.0, 0.0, 0.0, 1.7417668498604767E9, 0.0, 2025-03-12 17:07:29.860
66.0, -11867.792829012016, -14745.91520379963, -83899.64209790732, -37359.15271748933, -12363.554521030728, -33247.370510979956, -16098.41926079026, -58056.555158681294, -36459.49500316322, -40164.45310884155, -71290.24073961267, -86973.14107097877, -11621.655419070175, -68274.20810153581, -16190.351985734938, -57278.692099892156, 0.126859375, 0.9744062499999999, 0.048718750000000005, 192.0, 1.5, 120.0, 15.0, 56.0, 0.5, 56.0, 0.0, 0.0, 0.0, 1.7417668498605103E9, 0.0, 2025-03-12 17:07:29.860
68.0, -11882.67909081925, -14729.352561158248, -83533.63228245167, -37419.39066879638, -12217.530574504206, -33321.466543849296, -15934.938601844146, -58164.46938091152, -36526.12555338449, -40168.76699552143, -71285.9715564217, -86968.5813151099, -11534.103636038737, -68258.360714717, -16257.451922589771, -57257.435590915156, 0.126859375, 0.9744062499999999, 0.048718750000000005, 192.0, 0.0, 0.0, 0.0, 0.0, 0.0, 0.0, 0.0, 0.0, 0.0, 1.7417668498605387E9, 0.0, 2025-03-12 17:07:29.860
70.0, -11866.787000511527, -14743.188290976082, -83870.6518853488, -37374.15073801884, -12377.904340971034, -33263.57552571005, -16105.102432382399, -58080.94091188203, -36410.25411012818, -40194.89618478968, -71313.35244337947, -86994.95637356715, -11625.835195283318, -68306.95340716284, -16174.348136704939, -57298.13811756827, 0.126859375, 0.9744062499999999, 0.048718750000000005, 192.0, 0.0, 0.0, 0.0, 0.0, 0.0, 0.0, 0.0, 0.0, 0.0, 1.741766849860561E9, 0.0, 2025-03-12 17:07:29.860
72.0, -11877.717003550173, -14718.6237238197, -83604.26379493043, -37411.65696521485, -12225.979533908312, -33311.85529373351, -15967.370983048795, -58174.48296242749, -36590.87855707152, -40160.4297948396, -71283.28934708708, -86958.45597487164, -11559.897549140162, -68259.63476415095, -16272.293480908094, -57242.10229421882, 0.126859375, 0.9744062499999999, 0.048718750000000005, 192.0, 0.0, 0.0, 0.0, 0.0, 0.0, 0.0, 0.0, 0.0, 0.0, 1.7417668498605826E9, 0.0, 2025-03-12 17:07:29.860
74.0, -11880.153343695802, -14741.958945031041, -83825.72487899363, -37400.90577613185, -12377.680823526482, -33284.72027596477, -16043.03163803001, -58124.593868803255, -36365.70708342875, -40206.16146399516, -71336.55355412407, -87007.42864697322, -11629.120901718248, -68320.00682592473, -16149.00125849262, -57294.4724314776, 0.126859375, 0.9744062499999999, 0.048718750000000005, 192.0, 0.0, 0.0, 0.0, 0.0, 0.0, 0.0, 0.0, 0.0, 0.0, 1.7417668498606048E9, 0.0, 2025-03-12 17:07:29.860
76.0, -11884.221361186668, -14716.545011585356, -83649.32491175234, -37426.14089562189, -12247.034877185211, -33325.73572704026, -15894.258426935487, -58190.95619809106, -36647.40611879899, -40167.04591119837, -71296.11924840441, -86967.59783835386, -11599.14721240368, -68276.39857249243, -16252.35572485396, -57248.204320455116, 0.128, 0.974, 0.048, 192.0, 2.0, 0.0, 15.0, 56.0, 0.5, 64.0, 0.0, 0.0, 0.0, 1.741766849860627E9, 0.0, 2025-03-12 17:07:29.860
78.0, -11874.990090726626, -14733.375875160204, -83754.44516592564, -37424.12923862091, -12370.528265300783, -33309.575415799074, -15871.683165035627, -58132.908717740625, -36340.58372266099, -40233.58705444182, -71361.56515616956, -87027.81343791645, -11638.866262300762, -68342.47032910232, -16106.75646147209, -57309.8280799184, 0.128, 0.974, 0.048, 192.0, 0.0, 0.0, 0.0, 0.0, 0.0, 0.0, 0.0, 0.0, 0.0, 1.741766849990686E9, 0.0, 2025-03-12 17:07:29.990
80.0, -11865.82587549995, -14705.346787613249, -83719.59879631983, -37411.96988963722, -12245.000868439778, -33310.491837321744, -15772.799047565348, -58175.555846161355, -36706.70529683892, -40146.95169293305, -71273.05224812654, -86938.85349498433, -11612.982942221517, -68251.63283963596, -16226.07007337452, -57211.99449443752, 0.128, 0.974, 0.048, 192.0, 0.0, 0.0, 0.0, 0.0, 0.0, 0.0, 0.0, 0.0, 0.0, 1.7417668499907436E9, 0.0, 2025-03-12 17:07:29.990
82.0, -11882.656739074797, -14727.653828579645, -83683.72424646905, -37456.65102680338, -12347.30480281172, -33339.616160347, -15673.557302183784, -58183.15543927615, -36306.34085015546, -40257.726938453554, -71384.81097040308, -87049.65109224929, -11639.894442545707, -68363.05628574565, -16062.27649000603, -57320.86984167932, 0.128, 0.974, 0.048, 192.0, 0.0, 0.0, 0.0, 0.0, 0.0, 0.0, 0.0, 0.0, 0.0, 1.7417668499907725E9, 0.0, 2025-03-12 17:07:29.990
84.0, -11878.320500650467, -14721.48474710998, -83771.0748638004, -37445.273988875626, -12273.208769942376, -33340.621988847495, -15630.239621429399, -58204.81427965335, -36744.79266939076, -40165.81656525333, -71297.8850362164, -86961.56286735092, -11652.21025374058, -68277.15853180391, -16193.905913103334, -57232.15576793621, 0.128, 0.974, 0.048, 192.0, 0.0, 0.0, 0.0, 0.0, 0.0, 0.0, 0.0, 0.0, 0.0, 1.7417668499908E9, 0.0, 2025-03-12 17:07:29.990
86.0, -11902.393329428833, -14745.468168910524, -83611.86338804524, -37503.165007014875, -12348.623555734583, -33380.94453584487, -15467.384811328033, -58218.9405821491, -36313.649870592344, -40290.382837102756, -71418.94208418633, -87084.81038627749, -11646.979945538038, -68391.35359422608, -16032.883946047301, -57343.10982741235, 0.128, 0.98, 0.044, 192.0, 2.0, 0.0, 15.0, 80.0, 0.5, 48.0, 0.0, 0.0, 0.0, 1.7417668499908268E9, 0.0, 2025-03-12 17:07:29.990
88.0, -11908.1600794983, -14746.429293922103, -83815.80070445547, -37467.60338158648, -12320.549764698717, -33332.731823054775, -15477.979538199848, -58198.17581155012, -36773.939344160484, -40198.584222624806, -71326.11528946344, -86991.31303922094, -11693.471574005078, -68306.3275583181, -16160.780627820568, -57245.18683495365, 0.128, 0.98, 0.044, 192.0, 0.0, 0.0, 0.0, 0.0, 0.0, 0.0, 0.0, 0.0, 0.0, 1.7417668499909568E9, 0.0, 2025-03-12 17:07:29.990
90.0, -11926.466158207199, -14750.564366646335, -83547.82564018079, -37523.32628051356, -12349.696439468436, -33356.26820996621, -15283.586416672042, -58228.23890784251, -36336.85098133695, -40294.60731680481, -71432.6660552819, -87097.48382538365, -11657.485265432033, -68406.97746360034, -16020.769300552523, -57343.75802800155, 0.128, 0.98, 0.044, 192.0, 0.0, 0.0, 0.0, 0.0, 0.0, 0.0, 0.0, 0.0, 0.0, 1.7417668499909832E9, 0.0, 2025-03-12 17:07:29.990
92.0, -11938.893728124349, -14778.146419304183, -83845.14854492528, -37506.294251238614, -12374.775096747291, -33344.824116805095, -15370.981737492293, -58244.130998150235, -36785.405789066055, -40217.58320541182, -71355.28431597761, -87019.92327212373, -11720.628943518275, -68340.883355246, -16141.803996778011, -57266.868027075296, 0.128, 0.98, 0.044, 192.0, 0.0, 0.0, 0.0, 0.0, 0.0, 0.0, 0.0, 0.0, 0.0, 1.7417668499910097E9, 0.0, 2025-03-12 17:07:29.991
94.0, -11970.297929084056, -14792.138611333206, -83476.16594745708, -37578.512737573714, -12364.58270127567, -33409.9347484034, -15156.80732212154, -58296.25526622001, -36372.34555153198, -40340.137820260265, -71469.85935805552, -87139.48275321517, -11677.534780208443, -68449.1552053875, -16034.381512925806, -57375.162228961264, 0.128, 0.98, 0.044, 192.0, 0.0, 0.0, 0.0, 0.0, 0.0, 0.0, 0.0, 0.0, 0.0, 1.7417668499910355E9, 0.0, 2025-03-12 17:07:29.991
96.0, -11931.160024542813, -14774.167808791139, -83889.51675766907, -37490.223346975254, -12411.610771609638, -33320.63952930445, -15336.582402775575, -58222.02512288393, -36798.6380217836, -40242.01366210147, -71363.57681317054, -87037.08941186541, -11757.33050791389, -68365.24675670228, -16152.19755794973, -57287.364576740816, 0.132, 0.98, 0.042, 192.0, 2.0, 16.0, 15.0, 80.0, 0.5, 40.0, 0.0, 0.0, 0.0, 1.7417668499910612E9, 0.0, 2025-03-12 17:07:29.991
98.0, -11953.198844575745, -14777.87819837072, -83462.41962461706, -37575.361141605514, -12347.617727234094, -33394.71321042934, -15118.89876352534, -58278.91031252269, -36409.918833961354, -40323.32930842988, -71440.44446235233, -87114.44879942523, -11651.78557059593, -68428.65865572199, -16078.61561520286, -57346.10496116936, 0.132, 0.98, 0.042, 192.0, 0.0, 0.0, 0.0, 0.0, 0.0, 0.0, 0.0, 0.0, 0.0, 1.7417668499910882E9, 0.0, 2025-03-12 17:07:29.991
100.0, -11927.583745429964, -14775.799486136377, -83925.57012147548, -37497.71118136778, -12437.851719600169, -33310.84946523303, -15338.906984198928, -58203.5402302194, -36762.94228588847, -40249.16622032717, -71366.61665041646, -87040.1963043447, -11763.834865550383, -68376.98142254131, -16165.899177300833, -57283.76594588351, 0.132, 0.98, 0.042, 192.0, 0.0, 0.0, 0.0, 0.0, 0.0, 0.0, 0.0, 0.0, 0.0, 1.741766849991114E9, 0.0, 2025-03-12 17:07:29.991
102.0, -11929.036608819559, -14755.615860893235, -83465.68297930753, -37561.07837689857, -12335.950116628423, -33378.66465791043, -15118.60819084742, -58279.022071244966, -36456.52222115066, -40312.86869202479, -71435.0129884497, -87103.54114813104, -11662.11207653428, -68420.58967597362, -16121.866240723879, -57340.31585935544, 0.132, 0.98, 0.042, 192.0, 0.0, 0.0, 0.0, 0.0, 0.0, 0.0, 0.0, 0.0, 0.0, 1.7417668500677319E9, 0.0, 2025-03-12 17:07:30.067
104.0, -11926.108530295913, -14771.999689578974, -83948.05597639752, -37500.46044593578, -12454.436713986006, -33313.53167456766, -15346.707743013829, -58214.961971636054, -36724.20671274742, -40245.63464470323, -71368.71771439526, -87035.793010687, -11762.158484716236, -68377.16023649696, -16165.765066834101, -57289.733861653076, 0.132, 0.98, 0.042, 192.0, 0.0, 0.0, 0.0, 0.0, 0.0, 0.0, 0.0, 0.0, 0.0, 1.7417668500677824E9, 0.0, 2025-03-12 17:07:30.067
106.0, -11931.160024542813, -14740.282564196894, -83478.64699109162, -37564.78876647816, -12331.591526459639, -33378.75406488825, -15123.570278116498, -58293.841277818836, -36523.55510277213, -40299.16707267369, -71430.90026746991, -87091.98529624764, -11673.533817950944, -68418.08628059462, -16148.978906748165, -57327.66477199373, 0.134, 0.98, 0.046, 192.0, 2.0, 24.0, 15.0, 80.0, 0.5, 56.0, 0.0, 0.0, 0.0, 1.7417668500678077E9, 0.0, 2025-03-12 17:07:30.067
108.0, -11927.673152407784, -14768.669279655132, -83948.6147700089, -37518.14067579993, -12479.269502075853, -33322.248854905236, -15350.172263404402, -58215.051378613876, -36677.13393892455, -40265.39358680172, -71389.92951988334, -87052.22154286165, -11779.704604113651, -68397.94735884039, -16154.365677161895, -57295.455908233635, 0.134, 0.98, 0.046, 192.0, 0.0, 0.0, 0.0, 0.0, 0.0, 0.0, 0.0, 0.0, 0.0, 1.741766850067875E9, 0.0, 2025-03-12 17:07:30.067
110.0, -11930.35536174242, -14735.208718205538, -83509.58180541777, -37571.2707723702, -12327.702322924415, -33378.23997476578, -15142.23398473668, -58296.23291447556, -36585.62589712452, -40289.91345046919, -71411.47660153826, -87071.5558018155, -11681.111059321292, -68405.16697229946, -16174.951633805233, -57297.422861745705, 0.134, 0.98, 0.046, 192.0, 0.0, 0.0, 0.0, 0.0, 0.0, 0.0, 0.0, 0.0, 0.0, 1.7417668500678983E9, 0.0, 2025-03-12 17:07:30.067
112.0, -11904.06971026298, -14732.571212359813, -83950.78288922107, -37495.9006900669, -12475.46970551845, -33290.59878475652, -15359.716458286817, -58195.51595395994, -36617.45478122887, -40261.16910709967, -71380.76530465667, -87041.64916773429, -11763.276071939, -68394.72870763883, -16134.942011230232, -57287.76690814101, 0.134, 0.98, 0.046, 192.0, 0.0, 0.0, 0.0, 0.0, 0.0, 0.0, 0.0, 0.0, 0.0, 1.7417668500679212E9, 0.0, 2025-03-12 17:07:30.067
114.0, -11931.584707687463, -14723.697569811055, -83556.81104145182, -37568.14152814645, -12324.148395556022, -33370.41686420642, -15172.252377540157, -58297.55166739842, -36624.13795282102, -40265.34888331281, -71385.86150239248, -87044.71135672467, -11672.572692939364, -68380.4906464208, -16186.708651388724, -57269.52788466548, 0.134, 0.98, 0.046, 192.0, 0.0, 0.0, 0.0, 0.0, 0.0, 0.0, 0.0, 0.0, 0.0, 1.7417668500679436E9, 0.0, 2025-03-12 17:07:30.067
116.0, -11930.467120464698, -14757.87338708322, -83911.53322595755, -37548.69551047034, -12494.155763883087, -33332.88828526596, -15358.062429197125, -58243.348687094294, -36554.40051012045, -40291.81334874789, -71409.33083407056, -87070.14764191481, -11778.229388979602, -68424.70239695339, -16115.943028443222, -57310.54333574097, 0.128, 0.984, 0.046, 192.0, 2.0, 0.0, 15.0, 96.0, 0.5, 56.0, 0.0, 0.0, 0.0, 1.7417668500679655E9, 0.0, 2025-03-12 17:07:30.067
118.0, -11938.781969402073, -14730.648962336656, -83597.62532682721, -37605.513644875726, -12352.937442414457, -33382.218585278824, -15229.20462241228, -58311.70032163863, -36699.485683379855, -40283.90083121072, -71401.59713048901, -87062.5033453111, -11719.645466762242, -68405.7481176553, -16204.433584741782, -57282.6707104052, 0.128, 0.984, 0.046, 192.0, 0.0, 0.0, 0.0, 0.0, 0.0, 0.0, 0.0, 0.0, 0.0, 1.741766850067988E9, 0.0, 2025-03-12 17:07:30.067
120.0, -11937.150292056835, -14762.92488133012, -83849.66359730526, -37583.74304577625, -12517.62509556116, -33337.31393066811, -15388.594912123075, -58242.72283824955, -36517.3189660691, -40334.50518065753, -71443.70781704281, -87105.37399117637, -11796.28959849949, -68464.48850208384, -16104.700100982202, -57331.28575459549, 0.128, 0.984, 0.046, 192.0, 0.0, 0.0, 0.0, 0.0, 0.0, 0.0, 0.0, 0.0, 0.0, 1.7417668500977557E9, 0.0, 2025-03-12 17:07:30.097
122.0, -11919.671227892784, -14723.608162833234, -83648.63200767423, -37587.744008033755, -12371.847018223647, -33349.54033488516, -15339.197556876847, -58292.857801062804, -36770.56423074773, -40279.09520615282, -71384.83332214753, -87047.93000792623, -11741.192548417157, -68402.10478330909, -16227.902916419855, -57264.074059018385, 0.128, 0.984, 0.046, 192.0, 0.0, 0.0, 0.0, 0.0, 0.0, 0.0, 0.0, 0.0, 0.0, 1.7417668500978143E9, 0.0, 2025-03-12 17:07:30.097
124.0, -11920.230021504167, -14741.266040952927, -83804.9377566502, -37583.81010100962, -12502.671778520558, -33326.62979681847, -15471.743401496817, -58249.76363775297, -36476.683494649355, -40327.03969800946, -71425.5582005451, -87091.8511857809, -11771.166237731724, -68456.12894965756, -16114.557220286993, -57308.755196184546, 0.128, 0.984, 0.046, 192.0, 0.0, 0.0, 0.0, 0.0, 0.0, 0.0, 0.0, 0.0, 0.0, 1.7417668500978403E9, 0.0, 2025-03-12 17:07:30.097
126.0, -11909.948219054726, -14714.220430162006, -83732.74162205955, -37584.592412065555, -12385.749803274848, -33338.9679597578, -15493.40224187401, -58301.44087093364, -36810.66326030055, -40267.89698218072, -71367.13074053892, -87032.95433914117, -11753.486007867576, -68394.25932100527, -16255.350858610971, -57237.96722149459, 0.13, 0.978, 0.046, 192.0, 2.0, 8.0, 15.0, 72.0, 0.5, 56.0, 0.0, 0.0, 0.0, 1.7417668501138697E9, 0.0, 2025-03-12 17:07:30.113
128.0, -11899.241733460634, -14715.516831340414, -83760.39072995076, -37583.3183626316, -12484.745679467402, -33322.98646247226, -15557.149417060546, -58250.143617408714, -36439.78076455364, -40335.26513996901, -71439.08100594056, -87101.84241555243, -11765.377135917799, -68463.34856311663, -16124.257877380596, -57305.49184149407, 0.13, 0.978, 0.046, 192.0, 0.0, 0.0, 0.0, 0.0, 0.0, 0.0, 0.0, 0.0, 0.0, 1.741766850487501E9, 0.0, 2025-03-12 17:07:30.487
130.0, -11876.219436671667, -14690.57228452829, -83817.20886435614, -37559.781975720165, -12384.431050351985, -33315.230407146264, -15622.28240040331, -58276.16104795469, -36834.37846116763, -40231.5977491853, -71330.5409348656, -86994.57639391141, -11748.300403153946, -68357.75892230975, -16262.07873369202, -57197.19763960811, 0.13, 0.978, 0.046, 192.0, 0.0, 0.0, 0.0, 0.0, 0.0, 0.0, 0.0, 0.0, 0.0, 1.741766850487594E9, 0.0, 2025-03-12 17:07:30.487
132.0, -11905.187297485745, -14721.86472676572, -83698.34228734282, -37618.4776566598, -12465.724344935936, -33346.03111100568, -15597.114336146635, -58284.52060038097, -36397.62537451093, -40343.714099373115, -71440.42211060788, -87107.02802026607, -11750.267356666012, -68467.41658060749, -16109.371615573362, -57306.20709731664, 0.13, 0.978, 0.046, 192.0, 0.0, 0.0, 0.0, 0.0, 0.0, 0.0, 0.0, 0.0, 0.0, 1.741766850487619E9, 0.0, 2025-03-12 17:07:30.487
134.0, -11896.02308225907, -14706.95611321403, -83869.46724289266, -37594.98597323728, -12417.64574261257, -33321.64535780494, -15712.29287532483, -58294.44477491913, -36850.6505311311, -40252.87660990675, -71350.52339440864, -87017.17400755573, -11782.14094425928, -68386.57032091264, -16244.890242205889, -57212.262715370984, 0.13, 0.978, 0.046, 192.0, 0.0, 0.0, 0.0, 0.0, 0.0, 0.0, 0.0, 0.0, 0.0, 1.7417668504876416E9, 0.0, 2025-03-12 17:07:30.487
136.0, -11898.191201471234, -14700.876438722187, -83645.32394949484, -37632.89453183347, -12442.545585935783, -33342.18661095937, -15643.04717100229, -58291.71786209558, -36411.170531650845, -40352.56539017742, -71442.83609900906, -87108.0114970221, -11740.94667922815, -68469.53999633074, -16109.081042895443, -57293.377195999296, 0.13, 0.978, 0.05, 192.0, 2.0, 8.0, 15.0, 72.0, 0.5, 72.0, 0.0, 0.0, 0.0, 1.7417668504876645E9, 0.0, 2025-03-12 17:07:30.487
138.0, -11891.329215923455, -14709.683026037577, -83918.10463882741, -37601.98206925179, -12440.913908590544, -33316.12447692448, -15811.869896873224, -58283.17949571365, -36853.6009613992, -40259.470374521065, -71349.31640020804, -87011.63077493082, -11793.696796142674, -68388.04553604669, -16233.937887422788, -57208.41821532467, 0.13, 0.978, 0.05, 192.0, 0.0, 0.0, 0.0, 0.0, 0.0, 0.0, 0.0, 0.0, 0.0, 1.741766850487688E9, 0.0, 2025-03-12 17:07:30.487
140.0, -11901.633370117352, -14702.105784667228, -83599.0334867279, -37646.64085467349, -12431.369713708129, -33355.508250654726, -15715.623285248672, -58307.185269258654, -36425.34153763551, -40337.500314414545, -71442.41141586441, -87101.17186321877, -11742.17602517319, -68461.98510670484, -16119.876935467355, -57289.84562037535, 0.13, 0.978, 0.05, 192.0, 0.0, 0.0, 0.0, 0.0, 0.0, 0.0, 0.0, 0.0, 0.0, 1.7417668504877095E9, 0.0, 2025-03-12 17:07:30.487
142.0, -11900.672245105774, -14711.6723312941, -83969.04426444105, -37598.092865716564, -12470.619376971648, -33310.08950592155, -15952.618831708292, -58278.84325728932, -36845.800202584294, -40253.949493640604, -71351.55157465358, -87010.08850456339, -11826.106825602868, -68391.0406698037, -16241.939811937787, -57205.69130250112, 0.13, 0.978, 0.05, 192.0, 0.0, 0.0, 0.0, 0.0, 0.0, 0.0, 0.0, 0.0, 0.0, 1.7417668504877312E9, 0.0, 2025-03-12 17:07:30.487
144.0, -11921.816995360494, -14709.48186033748, -83559.58265776429, -37682.91773592446, -12435.974173065923, -33380.251631766754, -15821.414091755641, -58345.362048788316, -36449.36966292497, -40361.50608795954, -71464.22671845279, -87118.62857563837, -11760.884435282283, -68483.91216801551, -16160.11007548691, -57298.69691117966, 0.132, 0.98, 0.048, 192.0, 2.0, 24.0, 15.0, 88.0, 0.5, 56.0, 0.0, 0.0, 0.0, 1.741766850487753E9, 0.0, 2025-03-12 17:07:30.487
146.0, -11880.689785562729, -14689.030014160875, -84030.39980297087, -37599.61278433952, -12496.547400539805, -33292.54338652413, -16119.608714533892, -58262.14650418121, -36839.54171413681, -40246.39460401471, -71354.92668806633, -87009.8873388633, -11835.896889674294, -68393.05232680468, -16271.041783218598, -57201.06449139887, 0.132, 0.98, 0.048, 192.0, 0.0, 0.0, 0.0, 0.0, 0.0, 0.0, 0.0, 0.0, 0.0, 1.7417668504877756E9, 0.0, 2025-03-12 17:07:30.487
148.0, -11918.754806370116, -14700.09412766625, -83564.90237294465, -37705.98473620233, -12416.662265856537, -33389.46055048234, -15942.493491470039, -58357.11906637181, -36494.18491055786, -40349.90553258724, -71466.70776208732, -87123.38949720735, -11755.251795679545, -68478.83832202415, -16214.53657323558, -57289.800916886445, 0.132, 0.98, 0.048, 192.0, 0.0, 0.0, 0.0, 0.0, 0.0, 0.0, 0.0, 0.0, 0.0, 1.7417668504877973E9, 0.0, 2025-03-12 17:07:30.487
150.0, -11904.181468985256, -14720.836546520775, -84049.55524796907, -37637.27547374672, -12525.403502631605, -33328.619102075, -16207.473421987705, -58286.39814691522, -36802.66133578555, -40291.52277606998, -71384.25217679169, -87045.44896429169, -11858.740372507618, -68438.94045817143, -16270.214768673752, -57224.310305632396, 0.132, 0.98, 0.048, 192.0, 0.0, 0.0, 0.0, 0.0, 0.0, 0.0, 0.0, 0.0, 0.0, 1.74176685048782E9, 0.0, 2025-03-12 17:07:30.487
152.0, -11895.106660736403, -14682.592711757747, -83592.84205351378, -37692.88661395152, -12403.228867438898, -33387.15832080344, -16008.095861446365, -58368.47375255511, -36560.6813503124, -40349.50320118704, -71440.98090421926, -87103.51879638658, -11758.984537003582, -68480.2688336693, -16247.907727707354, -57264.29757646294, 0.132, 0.98, 0.048, 192.0, 0.0, 0.0, 0.0, 0.0, 0.0, 0.0, 0.0, 0.0, 0.0, 1.7417668504878523E9, 0.0, 2025-03-12 17:07:30.487
154.0, -11883.68491931974, -14700.988197444463, -84072.6893034803, -37635.24146500129, -12526.297572409818, -33313.03993618965, -16232.105044377453, -58308.34755997033, -36736.92485534249, -40294.24968889352, -71383.08988608002, -87044.75606021358, -11855.611128283874, -68443.79078671822, -16255.619079544436, -57214.94492470562, 0.131, 0.979, 0.049, 192.0, 2.0, 8.0, 15.0, 72.0, 0.5, 72.0, 0.0, 0.0, 0.0, 1.7417668504878747E9, 0.0, 2025-03-12 17:07:30.487
156.0, -11901.87923930636, -14687.934778682564, -83596.6865535601, -37716.46770435187, -12389.840172510168, -33399.89881514297, -15981.96667217811, -58405.86822102883, -36596.42178969643, -40347.782116863986, -71436.01881695018, -87098.44495039522, -11767.254682452045, -68481.3640691476, -16251.104027164463, -57250.797122811935, 0.131, 0.979, 0.049, 192.0, 0.0, 0.0, 0.0, 0.0, 0.0, 0.0, 0.0, 0.0, 0.0, 1.741766850487898E9, 0.0, 2025-03-12 17:07:30.487
158.0, -11893.609093857896, -14700.518810810901, -84046.5377624676, -37671.04895961869, -12550.0127732769, -33343.1700877154, -16157.181996963263, -58334.07441783839, -36674.652895290004, -40323.999860763535, -71417.48922079674, -87080.20592691969, -11881.226227429655, -68484.53801686026, -16215.385939524884, -57245.38800065375, 0.131, 0.979, 0.049, 192.0, 0.0, 0.0, 0.0, 0.0, 0.0, 0.0, 0.0, 0.0, 0.0, 1.7417668504879203E9, 0.0, 2025-03-12 17:07:30.487
160.0, -11913.636256889851, -14689.00766241642, -83628.96247255355, -37742.55219013121, -12395.74103304637, -33425.2903968442, -15898.035871748432, -58437.7418086221, -36665.06399691868, -40342.44004993916, -71432.4648895818, -87098.69081958424, -11797.04955781097, -68485.87912152757, -16246.588974784492, -57242.32581166337, 0.131, 0.979, 0.049, 192.0, 0.0, 0.0, 0.0, 0.0, 0.0, 0.0, 0.0, 0.0, 0.0, 1.741766850487942E9, 0.0, 2025-03-12 17:07:30.487
162.0, -11920.140614526346, -14723.921087255609, -83999.28617468908, -37718.07702995265, -12566.575415918282, -33386.063085325135, -16009.816945769424, -58365.45626705364, -36620.02523184124, -40370.8267653974, -71458.19174744985, -87123.47890418518, -11900.627541616863, -68530.51555520482, -16165.385087178362, -57273.439439945156, 0.131, 0.979, 0.049, 192.0, 0.0, 0.0, 0.0, 0.0, 0.0, 0.0, 0.0, 0.0, 0.0, 1.7417668504879644E9, 0.0, 2025-03-12 17:07:30.487
164.0, -11921.973457571681, -14705.324435868793, -83663.22769680354, -37758.48898392785, -12407.36394016313, -33442.72475751934, -15778.677556357094, -58443.597965669396, -36736.120192542105, -40351.671320399204, -71438.74572977373, -87102.69178184173, -11829.951325649183, -68499.0666507562, -16237.804739213556, -57233.76509353699, 0.1315, 0.9804999999999999, 0.0495, 192.0, 2.0, 16.0, 15.0, 88.0, 0.5, 72.0, 0.0, 0.0, 0.0, 1.7417668504879868E9, 0.0, 2025-03-12 17:07:30.487
166.0, -11914.865602834894, -14725.284543667382, -83965.35622660593, -37723.9555387444, -12565.167256017598, -33387.96298360384, -15855.746371238993, -58368.47375255511, -36585.91646980244, -40392.91028891925, -71473.72620984628, -87141.36029974942, -11913.032759789558, -68549.7827589253, -16134.070293196475, -57285.6211406733, 0.1315, 0.9804999999999999, 0.0495, 192.0, 0.0, 0.0, 0.0, 0.0, 0.0, 0.0, 0.0, 0.0, 0.0, 1.7417668504880097E9, 0.0, 2025-03-12 17:07:30.488
168.0, -11925.84030936245, -14710.442985349058, -83725.29849115593, -37761.551172918225, -12412.728358832403, -33437.22622838333, -15670.964499826969, -58447.66598316026, -36803.62246079713, -40349.63731165377, -71430.43088083636, -87098.42259865077, -11843.138854877812, -68495.75859257682, -16237.536518280092, -57228.26656440098, 0.1315, 0.9804999999999999, 0.0495, 192.0, 0.0, 0.0, 0.0, 0.0, 0.0, 0.0, 0.0, 0.0, 0.0, 1.7417668504880311E9, 0.0, 2025-03-12 17:07:30.488
170.0, -11915.69261737974, -14721.305933154337, -83920.92095862878, -37743.20039072042, -12556.114799513198, -33408.90656815846, -15711.15293635761, -58387.56214231994, -36543.06817568161, -40398.67703898872, -71478.42007618191, -87148.08817483047, -11893.139707224334, -68554.74484619437, -16115.920676698766, -57287.09635580735, 0.1315, 0.9804999999999999, 0.0495, 192.0, 0.0, 0.0, 0.0, 0.0, 0.0, 0.0, 0.0, 0.0, 0.0, 1.741766850488053E9, 0.0, 2025-03-12 17:07:30.488
172.0, -11914.999713301626, -14701.189363144562, -83812.71616372063, -37755.85147808212, -12431.280306730308, -33436.80154523868, -15607.619656040628, -58441.38514296832, -36856.48433643393, -40335.71217485812, -71417.48922079674, -87087.38083688985, -11852.638346271318, -68490.05889774072, -16244.867890461433, -57216.889526473235, 0.1315, 0.9804999999999999, 0.0495, 192.0, 0.0, 0.0, 0.0, 0.0, 0.0, 0.0, 0.0, 0.0, 0.0, 1.7417668504881392E9, 0.0, 2025-03-12 17:07:30.488
174.0, -11949.823731162995, -14743.858843309743, -83856.7938037865, -37797.0233913688, -12568.542369430348, -33463.53423160723, -15572.885045157082, -58441.18397726822, -36507.77477118668, -40440.22893193113, -71518.2285330568, -87188.96951543922, -11896.604227614907, -68595.96146296996, -16109.99746441811, -57317.070045121916, 0.12775, 0.98225, 0.04775, 192.0, 1.5, 112.0, 15.0, 96.0, 0.5, 56.0, 0.0, 0.0, 0.0, 1.7417668504881623E9, 0.0, 2025-03-12 17:07:30.488
176.0, -11944.101684582434, -14724.01049423343, -83856.10089970838, -37782.38299875057, -12483.493981777905, -33452.894801246504, -15509.07081473718, -58469.81656191547, -36904.317069568286, -40369.70917817464, -71454.07902647008, -87126.04935479753, -11907.914210309293, -68533.15306105054, -16246.343105595482, -57253.07700074637, 0.12775, 0.98225, 0.04775, 192.0, 0.0, 0.0, 0.0, 0.0, 0.0, 0.0, 0.0, 0.0, 0.0, 1.7417668504881852E9, 0.0, 2025-03-12 17:07:30.488
178.0, -11936.144463556346, -14727.877346024197, -83802.09908510436, -37790.60844071012, -12565.211959506507, -33438.47792607283, -15414.008845568758, -58426.878860816825, -36505.09256185205, -40445.28042617803, -71525.71636744933, -87197.15025390986, -11904.40498642981, -68605.77387878584, -16109.572781273459, -57324.781396959, 0.12775, 0.98225, 0.04775, 192.0, 0.0, 0.0, 0.0, 0.0, 0.0, 0.0, 0.0, 0.0, 0.0, 1.741766850488207E9, 0.0, 2025-03-12 17:07:30.488
180.0, -11930.467120464698, -14710.107709182228, -83941.30574957201, -37772.83880386815, -12505.130470410642, -33419.45659154136, -15394.04873777017, -58447.12954129333, -36939.74458452995, -40358.242733269064, -71435.32591287207, -87104.8599010539, -11918.821861603483, -68522.96066557892, -16252.243966131684, -57227.439549856135, 0.12775, 0.98225, 0.04775, 192.0, 0.0, 0.0, 0.0, 0.0, 0.0, 0.0, 0.0, 0.0, 0.0, 1.7417668504882295E9, 0.0, 2025-03-12 17:07:30.488
182.0, -11936.792664145549, -14713.169898172606, -83757.10502351583, -37808.84746418565, -12554.505473912415, -33433.47113531484, -15213.513697804654, -58435.17135800974, -36500.97984087227, -40453.50586813759, -71532.3324838081, -87198.69252427728, -11898.191201471234, -68610.02071023235, -16110.176278373752, -57320.62397249031, 0.12775, 0.98225, 0.04775, 192.0, 0.0, 0.0, 0.0, 0.0, 0.0, 0.0, 0.0, 0.0, 0.0, 1.7417668504882512E9, 0.0, 2025-03-12 17:07:30.488
184.0, -11953.154141086834, -14724.122252955707, -83975.48156684417, -37794.49764424535, -12537.875776037667, -33429.98426317981, -15207.925761690827, -58467.08964909192, -36948.23824742297, -40383.4331492702, -71461.94684051834, -87124.84236059694, -11969.85089419495, -68546.6311629571, -16224.97483789621, -57249.16544546669, 0.12787500000000002, 0.979125, 0.044875, 192.0, 2.0, 0.0, 15.0, 64.0, 0.5, 40.0, 0.0, 0.0, 0.0, 1.741766850488273E9, 0.0, 2025-03-12 17:07:30.488
186.0, -11957.423324277797, -14716.299142396349, -83671.72135969656, -37840.430479101, -12546.39179067514, -33464.18243219643, -14973.59007282139, -58475.02451837355, -36524.58328301708, -40481.93728708474, -71569.83871100411, -87232.06367874905, -11942.894690381849, -68643.3471612152, -16081.633100704326, -57334.16912963023, 0.12787500000000002, 0.979125, 0.044875, 192.0, 0.0, 0.0, 0.0, 0.0, 0.0, 0.0, 0.0, 0.0, 0.0, 1.7417668504882965E9, 0.0, 2025-03-12 17:07:30.488
188.0, -11950.382524774377, -14722.20000293255, -84017.90517782036, -37791.05547559923, -12560.048706537333, -33406.73844894629, -15058.057315117994, -58429.51636666255, -36969.4277011666, -40369.35155026335, -71451.64268632444, -87111.69953485722, -11993.208467150745, -68545.53592747879, -16191.089593301964, -57201.8020989659, 0.12787500000000002, 0.979125, 0.044875, 192.0, 0.0, 0.0, 0.0, 0.0, 0.0, 0.0, 0.0, 0.0, 0.0, 1.7417668504883187E9, 0.0, 2025-03-12 17:07:30.488
190.0, -11971.996661662659, -14722.28940991037, -83622.16754223914, -37856.903714764565, -12527.281049165851, -33469.21157469888, -14808.365977807758, -58483.205256844194, -36556.658036310444, -40479.36683647238, -71575.13607444002, -87231.95192002678, -11947.879129395382, -68649.1586147736, -16079.688498936714, -57298.875725135294, 0.12787500000000002, 0.979125, 0.044875, 192.0, 0.0, 0.0, 0.0, 0.0, 0.0, 0.0, 0.0, 0.0, 0.0, 1.7417668504883404E9, 0.0, 2025-03-12 17:07:30.488
192.0, -11918.687751136751, -14689.611159516713, -84070.20825984576, -37755.739719359844, -12572.230407265473, -33361.90084956895, -14986.643491583287, -58394.87116275683, -36957.62598009419, -40356.49929720155, -71445.65241881042, -87104.54697663152, -12008.027673724613, -68541.9820001104, -16184.182904265273, -57180.880866155734, 0.12787500000000002, 0.979125, 0.044875, 192.0, 0.0, 0.0, 0.0, 0.0, 0.0, 0.0, 0.0, 0.0, 0.0, 1.7417668504883623E9, 0.0, 2025-03-12 17:07:30.488
194.0, -11939.139597313357, -14677.965900655498, -83628.02369928644, -37838.39647035557, -12488.657234747081, -33443.596475553095, -14736.303953683848, -58465.77089616906, -36578.51804238773, -40448.789650057515, -71534.50060302026, -87192.41168408534, -11904.114413751891, -68617.82146904725, -16110.556258029494, -57248.94192802214, 0.1269375, 0.9755625, 0.043437500000000004, 192.0, 1.5, 120.0, 15.0, 48.0, 0.5, 40.0, 0.0, 0.0, 0.0, 1.741766850488392E9, 0.0, 2025-03-12 17:07:30.488
196.0, -11934.758655400117, -14699.691796266055, -84113.36947838897, -37776.48213821437, -12592.861067397722, -33381.32451550061, -14932.596973490356, -58413.82544205493, -36900.38316254415, -40361.66255017073, -71452.3132386581, -87112.01245927959, -12004.607856822951, -68556.37652353961, -16179.153761762831, -57182.73606094552, 0.1269375, 0.9755625, 0.043437500000000004, 192.0, 0.0, 0.0, 0.0, 0.0, 0.0, 0.0, 0.0, 0.0, 0.0, 1.7417668504884143E9, 0.0, 2025-03-12 17:07:30.488
198.0, -11967.816885449516, -14700.138831155162, -83636.76323136846, -37883.83756683321, -12508.684397779036, -33490.42338018696, -14666.119476094185, -58524.265411408596, -36633.16805758096, -40458.57971412894, -71560.47333007734, -87224.97817575673, -11935.920946111793, -68639.86028908018, -16144.262688668096, -57275.5181521795, 0.1269375, 0.9755625, 0.043437500000000004, 192.0, 0.0, 0.0, 0.0, 0.0, 0.0, 0.0, 0.0, 0.0, 0.0, 1.7417668504884365E9, 0.0, 2025-03-12 17:07:30.488
200.0, -11958.429152778286, -14708.677197537088, -84117.86217902448, -37813.60838575463, -12641.163187165641, -33393.75208541776, -14865.809961057897, -58425.00131428258, -36875.237450031935, -40400.57693726742, -71505.26452127272, -87168.07063437351, -12051.43476145682, -68608.67960556503, -16181.008956552621, -57231.39580862472, 0.1269375, 0.9755625, 0.043437500000000004, 192.0, 0.0, 0.0, 0.0, 0.0, 0.0, 0.0, 0.0, 0.0, 0.0, 1.7417668504884584E9, 0.0, 2025-03-12 17:07:30.488
202.0, -11962.094838868958, -14678.748211711432, -83645.41335647267, -37881.6917993655, -12508.527935567849, -33461.835499028624, -14626.534536663836, -58505.26642862159, -36712.494398652845, -40431.95878648267, -71552.35964684006, -87209.33195463801, -11952.349478286444, -68632.17128898756, -16184.182904265273, -57246.55029136543, 0.1269375, 0.9755625, 0.043437500000000004, 192.0, 0.0, 0.0, 0.0, 0.0, 0.0, 0.0, 0.0, 0.0, 0.0, 1.7417668504884803E9, 0.0, 2025-03-12 17:07:30.488
204.0, -11928.187242530257, -14683.263264091405, -84123.13719071593, -37804.466522272414, -12656.608242584258, -33381.83860562308, -14859.730286566055, -58416.93233453421, -36830.93629252152, -40365.88702987278, -71500.9282828484, -87150.23394229817, -12044.081037531023, -68595.44737284748, -16191.044889813054, -57209.11111940278, 0.12746875000000002, 0.97778125, 0.04371875, 192.0, 2.0, 0.0, 15.0, 80.0, 0.5, 48.0, 0.0, 0.0, 0.0, 1.7417668504885025E9, 0.0, 2025-03-12 17:07:30.488
206.0, -11941.754751414628, -14662.073810347774, -83693.89429019621, -37870.672389349034, -12499.09549940771, -33454.59353382511, -14649.601536941713, -58500.706672752705, -36773.08997787118, -40387.72468420562, -71535.4840797763, -87179.80530021254, -11954.741114943161, -68603.2928351513, -16232.842651944478, -57210.49692755901, 0.12746875000000002, 0.97778125, 0.04371875, 192.0, 0.0, 0.0, 0.0, 0.0, 0.0, 0.0, 0.0, 0.0, 0.0, 1.7417668504885273E9, 0.0, 2025-03-12 17:07:30.488
208.0, -11919.514765681597, -14666.410048772104, -84105.76988527416, -37808.89216767457, -12644.02421045592, -33377.41296022093, -14843.502920091501, -58403.32012216093, -36771.52535575931, -40367.58576245139, -71522.65417845895, -87163.0191401266, -12058.207340026778, -68606.86911426415, -16188.407383967327, -57210.318113603375, 0.12746875000000002, 0.97778125, 0.04371875, 192.0, 0.0, 0.0, 0.0, 0.0, 0.0, 0.0, 0.0, 0.0, 0.0, 1.7417668504885492E9, 0.0, 2025-03-12 17:07:30.488
210.0, -11932.478777465676, -14641.174929282062, -83750.35479669033, -37864.6374183461, -12473.167475839553, -33431.88416145851, -14657.402295756614, -58488.07793713545, -36831.56214136626, -40348.34091047537, -71515.34515802207, -87149.87631438689, -11972.711917485229, -68573.34149758119, -16257.876605734422, -57184.92653190214, 0.12746875000000002, 0.97778125, 0.04371875, 192.0, 0.0, 0.0, 0.0, 0.0, 0.0, 0.0, 0.0, 0.0, 0.0, 1.7417668504885707E9, 0.0, 2025-03-12 17:07:30.488
212.0, -11917.592515658442, -14653.960127110497, -84095.28691712463, -37822.48202830339, -12622.410073567638, -33380.408093977945, -14795.804297423876, -58408.81865129693, -36715.44482892094, -40345.21166625162, -71529.96319889584, -87162.7732709376, -12051.300650990088, -68598.64367230459, -16177.812657095512, -57216.84482298432, 0.12746875000000002, 0.97778125, 0.04371875, 192.0, 0.0, 0.0, 0.0, 0.0, 0.0, 0.0, 0.0, 0.0, 0.0, 1.7417668504885933E9, 0.0, 2025-03-12 17:07:30.488
214.0, -11923.69454189474, -14632.793025111321, -83828.76471623954, -37860.56940085523, -12472.496923505894, -33432.28649285871, -14623.360588951182, -58486.49096327913, -36893.0070868739, -40303.03392446446, -71500.25773051474, -87133.02309906759, -11991.241513638677, -68557.11413110663, -16269.901844251377, -57174.89059864171, 0.124, 0.974, 0.04, 192.0, 1.5, 112.0, 15.0, 56.0, 0.5, 32.0, 0.0, 0.0, 0.0, 1.7417668504886153E9, 0.0, 2025-03-12 17:07:30.488
216.0, -11928.790739630549, -14657.625813201168, -84053.80207941557, -37847.15835418205, -12616.330399075796, -33395.786094163195, -14683.307967580316, -58422.9896572816, -36661.97945618385, -40346.77628836349, -71543.46365254685, -87181.34757057996, -12047.567909666051, -68615.0498527348, -16152.063447482999, -57227.12662543376, 0.124, 0.974, 0.04, 192.0, 0.0, 0.0, 0.0, 0.0, 0.0, 0.0, 0.0, 0.0, 0.0, 1.7417668504886453E9, 0.0, 2025-03-12 17:07:30.488
218.0, -11942.671172937295, -14643.857138616699, -83892.53424317054, -37884.239898233405, -12493.932246438533, -33438.85790572857, -14554.025477650819, -58482.69116672173, -36945.95836948852, -40312.332250157866, -71510.91951261992, -87153.05026209954, -12014.24145868319, -68576.87307320513, -16262.212844158752, -57182.51254350097, 0.124, 0.974, 0.04, 192.0, 0.0, 0.0, 0.0, 0.0, 0.0, 0.0, 0.0, 0.0, 0.0, 1.7417668504886672E9, 0.0, 2025-03-12 17:07:30.488
220.0, -11966.609891248929, -14679.307005322815, -83984.60107858194, -37911.35256425769, -12626.947477692065, -33445.47402208734, -14552.349096816672, -58460.31707052196, -36631.02229011325, -40370.066806085924, -71581.57337684314, -87225.84989379048, -12052.373534723942, -68651.9078793416, -16131.298676884018, -57245.32094542038, 0.124, 0.974, 0.04, 192.0, 0.0, 0.0, 0.0, 0.0, 0.0, 0.0, 0.0, 0.0, 0.0, 1.7417668504886887E9, 0.0, 2025-03-12 17:07:30.488
222.0, -11962.921853413804, -14665.560682482801, -83951.67695899928, -37908.558596200775, -12531.48317712345, -33453.27478090224, -14494.480430421881, -58487.47444003516, -37006.55394870686, -40315.88617752626, -71530.14201285149, -87173.41270129832, -12059.995479583202, -68602.06348920625, -16261.83286450301, -57194.96246516258, 0.124, 0.974, 0.04, 192.0, 0.0, 0.0, 0.0, 0.0, 0.0, 0.0, 0.0, 0.0, 0.0, 1.7417668504887104E9, 0.0, 2025-03-12 17:07:30.488
224.0, -11956.573957988496, -14671.52859825237, -83936.76834544759, -37912.067820080265, -12623.773529979413, -33446.7927750102, -14461.735124794857, -58458.059544331976, -36618.23709228481, -40385.89184116028, -71595.07383049415, -87238.21040847426, -12052.418238212853, -68670.03514409484, -16125.442519836728, -57265.97395729709, 0.126, 0.97, 0.038, 192.0, 1.5, 120.0, 15.0, 40.0, 0.5, 24.0, 0.0, 0.0, 0.0, 1.7417668504887383E9, 0.0, 2025-03-12 17:07:30.488
226.0, -11954.405838776333, -14655.90472887811, -84015.73705860818, -37904.155302543084, -12559.378154203672, -33441.60717029657, -14461.377496883571, -58504.72998675466, -37033.4878007755, -40309.29241291194, -71522.8776959035, -87163.71204420472, -12069.182046554333, -68594.24037864691, -16260.849387746977, -57192.5484767614, 0.126, 0.97, 0.038, 192.0, 0.0, 0.0, 0.0, 0.0, 0.0, 0.0, 0.0, 0.0, 0.0, 1.7417668504887607E9, 0.0, 2025-03-12 17:07:30.488
228.0, -11961.111362112924, -14652.797836398822, -83882.90064131029, -37928.764573188375, -12621.091320644775, -33458.706254804885, -14374.183341763419, -58498.873829707365, -36609.7434293918, -40385.19893708217, -71608.08254576715, -87248.82748709053, -12049.62427015594, -68674.460789497, -16123.877897724857, -57279.608521414826, 0.126, 0.97, 0.038, 192.0, 0.0, 0.0, 0.0, 0.0, 0.0, 0.0, 0.0, 0.0, 0.0, 1.741766850488784E9, 0.0, 2025-03-12 17:07:30.488
230.0, -11943.006449104125, -14635.98932456843, -84099.95843171579, -37883.032904032814, -12586.535523716871, -33424.172809621436, -14440.992705940333, -58495.521068039074, -37054.16316439667, -40284.21375563309, -71511.09832657556, -87145.51772421811, -12085.051785117601, -68586.2384541319, -16258.50245457917, -57183.674834212645, 0.126, 0.97, 0.038, 192.0, 0.0, 0.0, 0.0, 0.0, 0.0, 0.0, 0.0, 0.0, 0.0, 1.7417668506026175E9, 0.0, 2025-03-12 17:07:30.602
232.0, -11957.624489977896, -14643.968897338975, -83836.40901284326, -37947.54003853083, -12610.11661411722, -33472.45257764489, -14285.871599420501, -58540.001039505136, -36607.4411997129, -40386.60709698285, -71619.68310113944, -87250.07918478003, -12047.52320617714, -68680.67457445557, -16125.934258214744, -57279.22854175908, 0.126, 0.97, 0.038, 192.0, 0.0, 0.0, 0.0, 0.0, 0.0, 0.0, 0.0, 0.0, 0.0, 1.7417668506026888E9, 0.0, 2025-03-12 17:07:30.602
234.0, -11943.453483993231, -14636.145786779618, -84149.17697300637, -37895.08049429423, -12624.645248013168, -33424.39632706599, -14399.463164742372, -58490.29075983653, -37050.922161450646, -40295.03199994946, -71533.91945766444, -87160.44868951425, -12119.339361112043, -68609.28310266533, -16242.11862589343, -57197.5999710083, 0.12, 0.974, 0.046, 192.0, 1.5, 96.0, 15.0, 56.0, 0.5, 56.0, 0.0, 0.0, 0.0, 1.7417668506027133E9, 0.0, 2025-03-12 17:07:30.602
236.0, -11930.914155353805, -14611.60357136769, -83806.52473050651, -37935.31363431378, -12591.63172145268, -33456.94046699291, -14208.735729305236, -58505.82522223297, -36628.20597031188, -40365.864678128324, -71612.3517289581, -87234.7905915726, -12040.437703184809, -68668.53757721634, -16129.354075116406, -57259.29078570495, 0.12, 0.974, 0.046, 192.0, 0.0, 0.0, 0.0, 0.0, 0.0, 0.0, 0.0, 0.0, 0.0, 1.7417668506027377E9, 0.0, 2025-03-12 17:07:30.602
238.0, -11935.540966456052, -14633.195356511516, -84205.10103763355, -37897.00274431738, -12637.586908052792, -33420.06008864166, -14366.494341670794, -58480.61245448738, -37024.81532392685, -40276.457700307095, -71521.08955634708, -87142.50023871663, -12114.801956987616, -68586.99841344338, -16227.478233275204, -57178.73509868802, 0.12, 0.974, 0.046, 192.0, 0.0, 0.0, 0.0, 0.0, 0.0, 0.0, 0.0, 0.0, 0.0, 1.7417668506027997E9, 0.0, 2025-03-12 17:07:30.602
240.0, -11940.435998491765, -14614.933981291531, -83783.65889592873, -37957.441861324536, -12581.506381214427, -33512.037517075245, -14146.642583208393, -58521.20322241822, -36651.384729312034, -40378.76163467904, -71626.2545140093, -87247.35227195648, -12057.894415604404, -68675.24310055294, -16134.986714719143, -57270.17608525469, 0.12, 0.974, 0.046, 192.0, 0.0, 0.0, 0.0, 0.0, 0.0, 0.0, 0.0, 0.0, 0.0, 1.7417668506028218E9, 0.0, 2025-03-12 17:07:30.602
242.0, -11928.634277419362, -14628.725007620456, -84249.44689863287, -37905.205834532484, -12673.595568370292, -33462.9977897403, -14360.884053812511, -58473.504599750595, -36997.27797475791, -40282.403264332206, -71528.64444597298, -87155.37484352289, -12145.0662189801, -68604.92451249654, -16211.139108078374, -57187.385223792226, 0.12, 0.974, 0.046, 192.0, 0.0, 0.0, 0.0, 0.0, 0.0, 0.0, 0.0, 0.0, 0.0, 1.7417668506028438E9, 0.0, 2025-03-12 17:07:30.602
244.0, -11950.561338730018, -14613.101138246197, -83770.80664286693, -37991.34945766324, -12588.413070251116, -33547.82265994819, -14132.27041152363, -58563.69388862776, -36692.44488387643, -40371.69848343116, -71625.06987155318, -87257.11998428345, -12071.506627977686, -68679.53463548835, -16158.992488264143, -57271.80776259992, 0.122, 0.98, 0.044, 192.0, 1.5, 104.0, 15.0, 80.0, 0.5, 48.0, 0.0, 0.0, 0.0, 1.7417668506028657E9, 0.0, 2025-03-12 17:07:30.602
246.0, -11938.245527535144, -14633.575336167258, -84257.98526501481, -37925.94825338701, -12702.406966973182, -33475.604173613094, -14378.743097632301, -58482.37824229935, -36954.474384126, -40301.17872967467, -71542.86015544656, -87179.96176242373, -12169.74254485876, -68630.67372210904, -16196.744584649157, -57202.71852048857, 0.122, 0.98, 0.044, 192.0, 0.0, 0.0, 0.0, 0.0, 0.0, 0.0, 0.0, 0.0, 0.0, 1.7417668506028883E9, 0.0, 2025-03-12 17:07:30.602
248.0, -11957.132751599878, -14619.471385415958, -83776.66279991422, -38009.70023986104, -12576.276073011884, -33550.571924516196, -14160.165388603853, -58576.21086552273, -36754.53802997327, -40372.436090998184, -71608.21665623387, -87243.57482714353, -12076.781639669138, -68676.98653662045, -16181.724212375191, -57243.66691633069, 0.122, 0.98, 0.044, 192.0, 0.0, 0.0, 0.0, 0.0, 0.0, 0.0, 0.0, 0.0, 0.0, 1.7417668506029105E9, 0.0, 2025-03-12 17:07:30.602
250.0, -11936.211518789712, -14627.383902953137, -84254.3866341575, -37937.25823608139, -12719.506051481492, -33458.974475738345, -14404.916990389465, -58475.2033323292, -36915.38118307367, -40320.49063688405, -71557.88052772052, -87191.8752422184, -12182.818315365115, -68642.453091437, -16181.008956552621, -57203.880811200244, 0.122, 0.98, 0.044, 192.0, 0.0, 0.0, 0.0, 0.0, 0.0, 0.0, 0.0, 0.0, 0.0, 1.7417668506029327E9, 0.0, 2025-03-12 17:07:30.602
252.0, -11955.925757399293, -14616.74447259241, -83802.92609964921, -38021.07727778879, -12579.293558513351, -33531.43883126245, -14188.775621506647, -58563.04568803855, -36824.63310058512, -40365.261181028036, -71601.95816778639, -87229.40382115888, -12092.271398576666, -68661.47442596847, -16197.996282338654, -57223.729160276554, 0.122, 0.98, 0.044, 192.0, 0.0, 0.0, 0.0, 0.0, 0.0, 0.0, 0.0, 0.0, 0.0, 1.7417668506029544E9, 0.0, 2025-03-12 17:07:30.602
254.0, -11924.342742483943, -14621.41598718357, -84240.10386945056, -37950.69163449903, -12716.332103768838, -33444.021158697746, -14390.388356493517, -58464.11686707936, -36875.237450031935, -40331.80061957844, -71573.16912092795, -87194.95978295324, -12181.924245586903, -68645.8058531053, -16157.271403941084, -57202.98674142203, 0.136, 0.978, 0.05, 192.0, 2.0, 32.0, 15.0, 72.0, 0.5, 72.0, 0.0, 0.0, 0.0, 1.741766850602976E9, 0.0, 2025-03-12 17:07:30.602
0.0, -11936.502091467632, -14595.778536293334, -83845.08148969192, -37996.646821099144, -12538.188700460041, -33512.68571766445, -14167.541464274105, -58546.01365876361, -36897.477435764966, -40342.12712551679, -71588.48006587983, -87207.52146333712, -12106.755328983705, -68641.73783561443, -16195.090555559464, -57204.50666004499, 0.136, 0.978, 0.05, 192.0, 0.0, 0.0, 0.0, 0.0, 0.0, 0.0, 0.0, 0.0, 0.0, 1.7417668506029985E9, 0.0, 2025-03-12 17:07:30.602
2.0, -11940.07837058048, -14618.264391215373, -84183.75512167873, -37959.453518325514, -12672.500332891981, -33471.71497007787, -14280.551884240138, -58479.181942842246, -36813.74780103538, -40334.12520100179, -71574.86785350656, -87193.88689921939, -12177.11862052901, -68648.8009868623, -16101.548505014003, -57208.68643625813, 0.136, 0.978, 0.05, 192.0, 0.0, 0.0, 0.0, 0.0, 0.0, 0.0, 0.0, 0.0, 0.0, 1.7417668506030285E9, 0.0, 2025-03-12 17:07:30.603
4.0, -11943.3193735265, -14597.700786316489, -83859.7442340546, -38001.29598394585, -12522.877755508156, -33518.85479913411, -14071.585425327472, -58551.15455998833, -36945.31016889932, -40353.37005297781, -71586.15548445648, -87198.75957951065, -12137.645439820939, -68643.9059548266, -16150.118845715386, -57196.48238378554, 0.136, 0.978, 0.05, 192.0, 0.0, 0.0, 0.0, 0.0, 0.0, 0.0, 0.0, 0.0, 0.0, 1.7417668507119153E9, 0.0, 2025-03-12 17:07:30.711
6.0, -11929.058960564013, -14602.528763118837, -84115.69405981232, -37966.293152128834, -12661.41386764215, -33459.24269667181, -14162.780542705124, -58463.24514904561, -36750.91704737151, -40358.667416413715, -71592.63749034853, -87205.30864063605, -12179.97964381929, -68667.28587952684, -16033.934478036701, -57215.481366572545, 0.136, 0.978, 0.05, 192.0, 0.0, 0.0, 0.0, 0.0, 0.0, 0.0, 0.0, 0.0, 0.0, 1.7417668507119691E9, 0.0, 2025-03-12 17:07:30.711
8.0, -11948.482626495676, -14604.071033486252, -83893.42831294874, -38015.95872830853, -12536.937002770544, -33523.34749976963, -14024.624410226872, -58545.05253375203, -36992.114721788734, -40331.64415736725, -71563.51316732325, -87177.68188448928, -12137.01959097619, -68634.22764947744, -16126.940086715233, -57165.636976437214, 0.134, 0.978, 0.052000000000000005, 192.0, 2.0, 24.0, 15.0, 72.0, 0.5, 80.0, 0.0, 0.0, 0.0, 1.741766850711994E9, 0.0, 2025-03-12 17:07:30.711
10.0, -11957.468027766708, -14626.646295386112, -84015.3794306969, -38009.87905381669, -12675.830742815822, -33496.234833745344, -14068.25501540363, -58481.64063473233, -36717.21061673291, -40410.27759436102, -71640.22435429387, -87257.49996393919, -12200.36443476253, -68719.81247899681, -15992.06966067191, -57241.342334907335, 0.134, 0.978, 0.052000000000000005, 192.0, 0.0, 0.0, 0.0, 0.0, 0.0, 0.0, 0.0, 0.0, 0.0, 1.7417668507120175E9, 0.0, 2025-03-12 17:07:30.712
12.0, -11966.386373804376, -14618.063225515274, -83923.60316796342, -38030.15208603765, -12557.142979758142, -33525.44856374843, -14019.617619468883, -58544.96312677421, -37066.0989959358, -40334.50518065753, -71568.18468191441, -87189.95299219525, -12176.671585639906, -68650.209146763, -16120.480432567649, -57161.41249673516, 0.134, 0.978, 0.052000000000000005, 192.0, 0.0, 0.0, 0.0, 0.0, 0.0, 0.0, 0.0, 0.0, 0.0, 1.7417668507120404E9, 0.0, 2025-03-12 17:07:30.712
14.0, -11970.2755773396, -14623.382940695637, -83933.6614529683, -38036.52233320741, -12671.89683579169, -33509.86939786308, -14036.001448154622, -58515.77174851558, -36703.84427354864, -40436.18326618472, -71660.20681383692, -87285.26083055268, -12209.215725566832, -68748.71328457753, -15984.805343723936, -57260.00604152752, 0.134, 0.978, 0.052000000000000005, 192.0, 0.0, 0.0, 0.0, 0.0, 0.0, 0.0, 0.0, 0.0, 0.0, 1.741766850712063E9, 0.0, 2025-03-12 17:07:30.712
16.0, -11961.89367316886, -14600.718271817956, -83982.05297971403, -38025.39116446867, -12584.72503241599, -33503.02976405976, -14067.495056092152, -58537.72116157069, -37115.652813393215, -40334.68399461317, -71558.640487032, -87186.60023052696, -12200.185620806888, -68654.23246076495, -16135.970191475177, -57154.394048976195, 0.134, 0.978, 0.052000000000000005, 192.0, 0.0, 0.0, 0.0, 0.0, 0.0, 0.0, 0.0, 0.0, 0.0, 1.7417668507120852E9, 0.0, 2025-03-12 17:07:30.712
18.0, -11959.524388256597, -14596.493792115903, -83881.96186804317, -38049.91102813614, -12664.341946165794, -33504.39322047153, -14034.503881276118, -58513.38011185886, -36692.33312515415, -40425.789705013005, -71648.18157531996, -87277.19185080432, -12190.552018946652, -68741.00193274044, -16000.272750887008, -57234.18977668164, 0.132, 0.98, 0.046, 192.0, 2.0, 16.0, 15.0, 80.0, 0.5, 56.0, 0.0, 0.0, 0.0, 1.741766850712108E9, 0.0, 2025-03-12 17:07:30.712
20.0, -11964.397068547854, -14601.32176891825, -84044.2355327887, -38036.4776297185, -12618.63262875469, -33499.72170588037, -14112.578524658506, -58534.949545258234, -37128.90739785521, -40330.41481142221, -71556.67353351993, -87185.16971888182, -12217.79879543767, -68656.1100072992, -16143.547432845526, -57138.05492377936, 0.132, 0.98, 0.046, 192.0, 0.0, 0.0, 0.0, 0.0, 0.0, 0.0, 0.0, 0.0, 0.0, 1.741766850712131E9, 0.0, 2025-03-12 17:07:30.712
22.0, -11981.697318756262, -14615.805699325289, -83801.8308641709, -38096.67087753664, -12665.861864788756, -33536.89265690955, -14016.667189200782, -58556.36251644642, -36692.288421665246, -40444.028728488534, -71670.15334011953, -87297.71075221429, -12206.578219721107, -68763.80071208486, -16013.013245226533, -57239.48714011755, 0.132, 0.98, 0.046, 192.0, 0.0, 0.0, 0.0, 0.0, 0.0, 0.0, 0.0, 0.0, 0.0, 1.7417668510073855E9, 0.0, 2025-03-12 17:07:31.007
24.0, -11950.740152685661, -14603.847516041698, -84090.32482985554, -38040.903275120654, -12666.465361889048, -33484.634278373036, -14182.897112714902, -58516.15172817132, -37146.72173818609, -40350.486677943074, -71568.40819935896, -87198.42430334381, -12267.598482084095, -68677.8135511653, -16150.8117497935, -57145.363944216246, 0.132, 0.98, 0.046, 192.0, 0.0, 0.0, 0.0, 0.0, 0.0, 0.0, 0.0, 0.0, 0.0, 1.7417668510074737E9, 0.0, 2025-03-12 17:07:31.007
26.0, -11972.778972718594, -14608.250809699395, -83753.59579963634, -38111.512435854966, -12657.636422829202, -33537.67496796548, -14062.912948478814, -58556.94366180226, -36705.94533752744, -40449.46020239117, -71662.21847083789, -87292.14516784492, -12201.258504540743, -68761.38672368368, -16049.9383270667, -57224.73498877705, 0.127, 0.981, 0.045, 192.0, 1.5, 104.0, 15.0, 88.0, 0.5, 48.0, 0.0, 0.0, 0.0, 1.7417668510074975E9, 0.0, 2025-03-12 17:07:31.007
28.0, -11967.548664516053, -14619.918420305065, -84117.99628949122, -38075.90610693766, -12695.522629680949, -33493.55262441071, -14283.748183697247, -58529.20514693322, -37131.50020021203, -40353.59357042236, -71578.57824308613, -87207.56616682603, -12284.496400892307, -68690.17406584907, -16170.68245061427, -57147.57676691732, 0.127, 0.981, 0.045, 192.0, 0.0, 0.0, 0.0, 0.0, 0.0, 0.0, 0.0, 0.0, 0.0, 1.741766851007521E9, 0.0, 2025-03-12 17:07:31.007
30.0, -11956.864530666415, -14603.489888130414, -83715.64253755123, -38129.10325874129, -12652.719039049034, -33539.95484589993, -14145.346182029985, -58564.677365383795, -36737.28248325378, -40449.77312681355, -71673.41669481, -87300.21414759329, -12211.94263839038, -68765.16416849663, -16092.831324676434, -57229.875890001764, 0.127, 0.981, 0.045, 192.0, 0.0, 0.0, 0.0, 0.0, 0.0, 0.0, 0.0, 0.0, 0.0, 1.741766851007543E9, 0.0, 2025-03-12 17:07:31.007
32.0, -11916.564335413497, -14597.164344449562, -84180.73763617726, -38045.932417623095, -12718.924906125654, -33463.444824629405, -14415.869345172567, -58492.727099982156, -37110.60131914631, -40349.21262850912, -71567.0894464361, -87194.71391376424, -12289.413784672473, -68681.18866457805, -16200.276160273095, -57134.6351068777, 0.127, 0.981, 0.045, 192.0, 0.0, 0.0, 0.0, 0.0, 0.0, 0.0, 0.0, 0.0, 0.0, 1.7417668510075643E9, 0.0, 2025-03-12 17:07:31.007
34.0, -11926.197937273733, -14576.533684317314, -83736.94375001715, -38114.90990101217, -12628.623858526214, -33533.13756384105, -14240.29639247613, -58580.0777173135, -36771.81592843723, -40424.247434645586, -71640.73844441635, -87269.21227803377, -12191.759013147237, -68738.83381352828, -16145.827310779967, -57195.99064540752, 0.127, 0.981, 0.045, 192.0, 0.0, 0.0, 0.0, 0.0, 0.0, 0.0, 0.0, 0.0, 0.0, 1.7417668510075853E9, 0.0, 2025-03-12 17:07:31.007
36.0, -11928.567222185997, -14598.84072528371, -84224.54705530967, -38057.84589741778, -12740.896670925222, -33482.1532347385, -14502.34824447015, -58505.936980955245, -37059.68404527713, -40355.78404137898, -71571.15746392697, -87205.12982668041, -12292.811249829681, -68700.00883340942, -16204.768860908613, -57152.31533674185, 0.1255, 0.9824999999999999, 0.0465, 192.0, 1.5, 112.0, 15.0, 96.0, 0.5, 64.0, 0.0, 0.0, 0.0, 1.741766851007606E9, 0.0, 2025-03-12 17:07:31.007
38.0, -11927.628448918873, -14565.201349878473, -83762.96118056311, -38118.5979388473, -12622.11950088972, -33537.85378192113, -14303.082442651088, -58552.51801640011, -36822.97907149542, -40415.70906826366, -71629.4061099775, -87263.1996587753, -12202.84547839707, -68742.05246472984, -16174.973985549688, -57183.674834212645, 0.1255, 0.9824999999999999, 0.0465, 192.0, 0.0, 0.0, 0.0, 0.0, 0.0, 0.0, 0.0, 0.0, 0.0, 1.7417668510076275E9, 0.0, 2025-03-12 17:07:31.007
40.0, -11905.030835274558, -14573.31503311575, -84252.95612251236, -38052.10149909276, -12753.458351309104, -33457.27574315974, -14559.613413764646, -58456.67373617575, -37012.29834703187, -40358.89093385827, -71572.45386510537, -87202.62643130141, -12303.025997045756, -68706.714356746, -16190.419040968305, -57132.77991208791, 0.1255, 0.9824999999999999, 0.0465, 192.0, 0.0, 0.0, 0.0, 0.0, 0.0, 0.0, 0.0, 0.0, 0.0, 1.741766851007648E9, 0.0, 2025-03-12 17:07:31.007
42.0, -11919.023027303581, -14554.964250917943, -83812.76086720954, -38128.32094768536, -12606.361521048728, -33538.14435459904, -14359.922928800934, -58554.820246079, -36882.39000825763, -40386.40593128275, -71602.51696139776, -87230.09672523699, -12197.637521938983, -68712.25758937091, -16204.9253231198, -57140.35715345826, 0.1255, 0.9824999999999999, 0.0465, 192.0, 0.0, 0.0, 0.0, 0.0, 0.0, 0.0, 0.0, 0.0, 0.0, 1.7417668510076685E9, 0.0, 2025-03-12 17:07:31.007
44.0, -11927.337876240956, -14592.93986474751, -84246.89879976497, -38098.34725837079, -12772.055002695919, -33494.133769766544, -14568.509408057858, -58517.24696364963, -36954.429680637084, -40392.03857088549, -71606.09324051061, -87235.97523402874, -12322.62847693306, -68736.71039780503, -16172.20236923723, -57153.07529605333, 0.1255, 0.9824999999999999, 0.0465, 192.0, 0.0, 0.0, 0.0, 0.0, 0.0, 0.0, 0.0, 0.0, 0.0, 1.7417668510076892E9, 0.0, 2025-03-12 17:07:31.007
46.0, -11938.826672890982, -14559.12167538663, -83835.91727446525, -38167.2576865265, -12631.775454494413, -33564.541764800764, -14361.822827079633, -58605.20107808126, -36956.329578915786, -40417.96659445365, -71637.58684844815, -87267.26767626616, -12258.501322090784, -68752.44602590156, -16209.887410388877, -57167.76039216047, 0.12375, 0.98525, 0.04525, 192.0, 1.5, 104.0, 15.0, 112.0, 0.5, 48.0, 0.0, 0.0, 0.0, 1.7417668510077183E9, 0.0, 2025-03-12 17:07:31.007
48.0, -11903.510916651598, -14553.399628806072, -84237.84634326058, -38097.63200254822, -12773.731383530067, -33480.074522504154, -14544.414227535037, -58497.420966317775, -36925.998261689936, -40378.62752421231, -71595.38675491653, -87222.31831816654, -12327.635267691048, -68728.46260410102, -16151.683467827257, -57133.65163012167, 0.12375, 0.98525, 0.04525, 192.0, 0.0, 0.0, 0.0, 0.0, 0.0, 0.0, 0.0, 0.0, 0.0, 1.7417668510077403E9, 0.0, 2025-03-12 17:07:31.007
50.0, -11896.760689826095, -14529.907945383544, -83909.96860384567, -38146.336453716336, -12618.342056076772, -33543.911104668514, -14359.252376467273, -58578.31192950153, -37016.47812324502, -40386.33887604939, -71598.42659216245, -87224.59819610098, -12256.71318253436, -68718.82900224079, -16218.828108171001, -57119.72649332601, 0.12375, 0.98525, 0.04525, 192.0, 0.0, 0.0, 0.0, 0.0, 0.0, 0.0, 0.0, 0.0, 0.0, 1.7417668510077608E9, 0.0, 2025-03-12 17:07:31.007
52.0, -11919.559469170508, -14564.955480689465, -84202.73175272129, -38137.663976867676, -12776.055964953419, -33510.96463334139, -14477.58251161367, -58516.844632249435, -36853.355092210186, -40394.94429766468, -71608.97661554535, -87235.21527471725, -12316.079415807655, -68746.18753745408, -16119.38519708934, -57148.76140937345, 0.12375, 0.98525, 0.04525, 192.0, 0.0, 0.0, 0.0, 0.0, 0.0, 0.0, 0.0, 0.0, 0.0, 1.7417668510077815E9, 0.0, 2025-03-12 17:07:31.007
54.0, -11934.579841444474, -14546.35882930265, -83962.74107250465, -38178.88059364326, -12649.634498314203, -33565.92757295699, -14342.913251270444, -58601.37892977941, -37071.21754541607, -40398.56528026644, -71607.99313878932, -87231.75075432668, -12293.705319607892, -68740.1749181956, -16210.87088714491, -57136.84792957878, 0.12375, 0.98525, 0.04525, 192.0, 0.0, 0.0, 0.0, 0.0, 0.0, 0.0, 0.0, 0.0, 0.0, 1.7417668510078018E9, 0.0, 2025-03-12 17:07:31.007
56.0, -11918.240716247645, -14549.488073526392, -84167.88538311546, -38146.247046738514, -12775.206598664117, -33514.898540365524, -14443.630211786058, -58526.23236492067, -36824.61074884066, -40432.31641439396, -71633.56353444619, -87258.48344069523, -12331.189195059444, -68771.95909881104, -16095.42412703325, -57172.0966305848, 0.122875, 0.983625, 0.043625, 192.0, 1.5, 104.0, 15.0, 88.0, 0.5, 40.0, 0.0, 0.0, 0.0, 1.7417668510078225E9, 0.0, 2025-03-12 17:07:31.007
58.0, -11924.588611672953, -14537.239317564883, -84053.6903206933, -38175.818404652884, -12637.721018519524, -33549.14141287105, -14389.829562882134, -58593.5781709645, -37128.46036296611, -40377.57699222291, -71568.25173714779, -87196.77027425413, -12290.888999806524, -68697.48308628597, -16222.270276817117, -57094.334911624785, 0.122875, 0.983625, 0.043625, 192.0, 0.0, 0.0, 0.0, 0.0, 0.0, 0.0, 0.0, 0.0, 0.0, 1.7417668510078435E9, 0.0, 2025-03-12 17:07:31.007
60.0, -11949.577861973985, -14571.526893559325, -84110.48610335424, -38205.94855617864, -12771.786781762456, -33561.948962443945, -14428.47572904536, -58591.231237796695, -36780.84603319717, -40466.06754852147, -71658.55278474723, -87288.03244686514, -12337.78295967376, -68790.17577054212, -16085.522304239548, -57182.08786035632, 0.122875, 0.983625, 0.043625, 192.0, 0.0, 0.0, 0.0, 0.0, 0.0, 0.0, 0.0, 0.0, 0.0, 1.741766851007864E9, 0.0, 2025-03-12 17:07:31.007
62.0, -11930.712989653706, -14548.526948514815, -84127.45107739582, -38200.09239913135, -12685.687862120612, -33561.47957581039, -14458.807046271211, -58603.61410422494, -37187.98305845059, -40400.9345651787, -71590.60348160309, -87224.86641703444, -12342.275660309275, -68718.38196735167, -16230.227497843207, -57111.76927229992, 0.122875, 0.983625, 0.043625, 192.0, 0.0, 0.0, 0.0, 0.0, 0.0, 0.0, 0.0, 0.0, 0.0, 1.741766851007884E9, 0.0, 2025-03-12 17:07:31.007
64.0, -11952.349478286444, -14575.013765694353, -84060.6417132189, -38239.0738414614, -12767.294081126938, -33574.51064282783, -14459.142322438041, -58581.932912103286, -36777.87325118462, -40500.84686289392, -71667.02409589579, -87304.61744125097, -12328.685799680448, -68804.52559048243, -16099.179220101742, -57186.49115401402, 0.122875, 0.983625, 0.043625, 192.0, 0.0, 0.0, 0.0, 0.0, 0.0, 0.0, 0.0, 0.0, 0.0, 1.741766851007904E9, 0.0, 2025-03-12 17:07:31.007
66.0, -11939.474873480187, -14557.333535830205, -84210.3313458361, -38206.32853583438, -12692.147516268196, -33553.65646525103, -14568.755277246866, -58561.90574907133, -37211.295927917476, -40406.85777745936, -71562.57439405614, -87203.07346619052, -12344.644945221538, -68713.24106612695, -16253.920346965831, -57077.72756549449, 0.1224375, 0.9818125, 0.0438125, 192.0, 1.5, 104.0, 15.0, 80.0, 0.5, 48.0, 0.0, 0.0, 0.0, 1.7417668510079243E9, 0.0, 2025-03-12 17:07:31.007
68.0, -11964.665289481318, -14581.987509964409, -84025.61652965743, -38262.99020802858, -12751.133769885751, -33596.50475937185, -14526.264611037328, -58576.054403311544, -36758.89662014206, -40528.898302185335, -71670.2650988418, -87314.09458090003, -12323.72371241137, -68830.56537277286, -16126.71656927068, -57174.6447294527, 0.1224375, 0.9818125, 0.0438125, 192.0, 0.0, 0.0, 0.0, 0.0, 0.0, 0.0, 0.0, 0.0, 0.0, 1.7417668510079527E9, 0.0, 2025-03-12 17:07:31.007
70.0, -11917.83838484745, -14555.903024185065, -84317.03857386572, -38196.96315490761, -12724.602249217302, -33539.95484589993, -14720.031883720385, -58530.50154811163, -37218.15791346526, -40427.77901026953, -71551.17500438393, -87199.54189056659, -12362.660451252515, -68730.40720586863, -16279.110762966964, -57063.221283342995, 0.1224375, 0.9818125, 0.0438125, 192.0, 0.0, 0.0, 0.0, 0.0, 0.0, 0.0, 0.0, 0.0, 0.0, 1.7417668510079732E9, 0.0, 2025-03-12 17:07:31.007
72.0, -11943.565242715507, -14576.086649428207, -84026.06356454654, -38274.188432000694, -12725.630429462246, -33612.26273921284, -14632.27893498885, -58578.69190915727, -36758.80721316424, -40524.65147073883, -71640.93961011645, -87291.87694691145, -12296.499287664807, -68809.15240158468, -16167.642613368347, -57147.44265645059, 0.1224375, 0.9818125, 0.0438125, 192.0, 0.0, 0.0, 0.0, 0.0, 0.0, 0.0, 0.0, 0.0, 0.0, 1.7417668510079937E9, 0.0, 2025-03-12 17:07:31.007
74.0, -11918.531288925564, -14570.342251103193, -84389.48057764537, -38212.16234113721, -12747.08810413934, -33558.41738682001, -14862.032516244952, -58548.9193855428, -37191.6263927968, -40439.357213897376, -71553.85721371857, -87205.30864063605, -12379.245445638353, -68747.59569735476, -16282.418821146348, -57075.49239104896, 0.1224375, 0.9818125, 0.0438125, 192.0, 0.0, 0.0, 0.0, 0.0, 0.0, 0.0, 0.0, 0.0, 0.0, 1.7417668510080135E9, 0.0, 2025-03-12 17:07:31.008
76.0, -11930.89180360935, -14564.30728010026, -84008.45038991576, -38278.167042513734, -12703.23398151803, -33619.772925349826, -14732.34769491526, -58606.38572053739, -36773.22408833791, -40536.36378483341, -71647.7121886864, -87295.54263300213, -12303.785956357237, -68824.73156747002, -16180.092535029953, -57154.394048976195, 0.12821875, 0.98190625, 0.043906249999999994, 192.0, 2.0, 24.0, 15.0, 88.0, 0.5, 48.0, 0.0, 0.0, 0.0, 1.7417668510080335E9, 0.0, 2025-03-12 17:07:31.008
78.0, -11922.062864549502, -14578.143009918096, -84440.1296305811, -38224.209931398625, -12764.522464814481, -33566.24049737937, -14987.045822983484, -58562.822170594, -37163.64200873876, -40446.95680701218, -71555.55594629717, -87203.40874235735, -12401.530134860293, -68754.41297941362, -16270.997079729686, -57075.13476313768, 0.12821875, 0.98190625, 0.043906249999999994, 192.0, 0.0, 0.0, 0.0, 0.0, 0.0, 0.0, 0.0, 0.0, 0.0, 1.741766851008055E9, 0.0, 2025-03-12 17:07:31.008
80.0, -11948.057943351025, -14581.540475075302, -83984.44461637076, -38319.16014184477, -12695.142650025207, -33650.260704786866, -14809.662378986166, -58629.65388651537, -36813.52428359083, -40558.24614265515, -71669.6168982526, -87317.40263907942, -12340.152244586021, -68851.12897767175, -16193.503581703137, -57172.923645129646, 0.12821875, 0.98190625, 0.043906249999999994, 192.0, 0.0, 0.0, 0.0, 0.0, 0.0, 0.0, 0.0, 0.0, 0.0, 1.741766851008078E9, 0.0, 2025-03-12 17:07:31.008
82.0, -11935.36215250041, -14587.374280378137, -84459.30742732376, -38261.894972550275, -12785.175476691185, -33582.04318070927, -15080.967853184684, -58559.40235369234, -37145.24652305204, -40473.756548614096, -71583.24975767729, -87234.52237063914, -12441.875033602124, -68786.0406978179, -16258.480102834716, -57099.989902971975, 0.12821875, 0.98190625, 0.043906249999999994, 192.0, 0.0, 0.0, 0.0, 0.0, 0.0, 0.0, 0.0, 0.0, 0.0, 1.7417668510080986E9, 0.0, 2025-03-12 17:07:31.008
84.0, -11939.497225224643, -14560.820407965233, -83980.06367445752, -38334.091107140914, -12669.996937512988, -33644.38219599512, -14889.838086347352, -58620.109691632955, -36871.884688363636, -40551.25004664064, -71654.23889806734, -87305.5115110292, -12352.915090670002, -68833.33698908532, -16217.151727336852, -57158.32795600033, 0.12821875, 0.98190625, 0.043906249999999994, 192.0, 0.0, 0.0, 0.0, 0.0, 0.0, 0.0, 0.0, 0.0, 0.0, 1.7417668510081189E9, 0.0, 2025-03-12 17:07:31.008
86.0, -11938.245527535144, -14582.613358809158, -84464.91771518203, -38278.748187869576, -12802.453375155137, -33592.95083200346, -15160.674173912308, -58567.09135378496, -37096.13974048373, -40500.77980766056, -71598.58305437364, -87258.43873720632, -12457.856530887668, -68806.91722713914, -16240.889279948387, -57123.45923465005, 0.131109375, 0.979953125, 0.042953124999999995, 192.0, 2.0, 24.0, 15.0, 72.0, 0.5, 40.0, 0.0, 0.0, 0.0, 1.741766851008139E9, 0.0, 2025-03-12 17:07:31.008
88.0, -11941.08419908097, -14549.890404926588, -84002.16954972381, -38338.784973476526, -12667.001803755977, -33659.13434733562, -14980.541465346989, -58648.27288964664, -36936.23536065047, -40544.3210058595, -71641.63251419456, -87300.32590631556, -12360.179407617976, -68832.15234662918, -16241.984515426699, -57144.805150604865, 0.131109375, 0.979953125, 0.042953124999999995, 192.0, 0.0, 0.0, 0.0, 0.0, 0.0, 0.0, 0.0, 0.0, 0.0, 1.7417668510082211E9, 0.0, 2025-03-12 17:07:31.008
90.0, -11933.194033288246, -14572.108038915163, -84465.05182564877, -38281.56450767094, -12820.625343397302, -33580.344448130665, -15251.109331978481, -58563.000984549646, -37047.72586199354, -40504.93723212925, -71611.5023626688, -87263.4008244754, -12465.724344935936, -68811.5440382414, -16239.570527025526, -57123.973324772516, 0.131109375, 0.979953125, 0.042953124999999995, 192.0, 0.0, 0.0, 0.0, 0.0, 0.0, 0.0, 0.0, 0.0, 0.0, 1.741766851008242E9, 0.0, 2025-03-12 17:07:31.008
92.0, -11951.634222463874, -14556.417114307538, -84031.9867768272, -38358.298046386015, -12674.824914315333, -33662.53181249283, -15083.583007285955, -58659.82874153004, -36989.968954321026, -40524.137380616354, -71632.58005769015, -87279.49408048321, -12378.016099693312, -68813.0863086088, -16278.104934466475, -57119.79354855938, 0.131109375, 0.979953125, 0.042953124999999995, 192.0, 0.0, 0.0, 0.0, 0.0, 0.0, 0.0, 0.0, 0.0, 0.0, 1.7417668510082624E9, 0.0, 2025-03-12 17:07:31.008
94.0, -11926.913193096303, -14571.661004026057, -84450.65730221955, -38300.22821429112, -12845.6816489317, -33598.35995416164, -15329.474548038788, -58565.7726008621, -36994.32754448981, -40535.134438888366, -71636.9609996034, -87285.99843811971, -12487.204371357486, -68840.28838161092, -16235.882489190399, -57139.75365635796, 0.131109375, 0.979953125, 0.042953124999999995, 192.0, 0.0, 0.0, 0.0, 0.0, 0.0, 0.0, 0.0, 0.0, 0.0, 1.7417668510082831E9, 0.0, 2025-03-12 17:07:31.008
96.0, -11937.507919968119, -14549.800997948767, -84098.28205088164, -38356.39814810731, -12676.590702127303, -33661.503632247885, -15191.519581260633, -58656.721849050744, -37064.73553952402, -40513.20737757771, -71615.88330458204, -87268.87700186695, -12384.92278873, -68810.47115450754, -16314.203001761796, -57107.410682131136, 0.132, 0.984, 0.046, 192.0, 2.0, 16.0, 15.0, 96.0, 0.5, 56.0, 0.0, 0.0, 0.0, 1.7417668510083036E9, 0.0, 2025-03-12 17:07:31.008
98.0, -11931.137672798357, -14566.855378968166, -84431.34539501017, -38321.48472326812, -12826.213279511128, -33615.81666658124, -15375.161513705436, -58576.747307389654, -36940.63865430816, -40552.79231700806, -71644.7617584183, -87299.9012231709, -12469.837065915712, -68854.72760852905, -16233.602611255958, -57146.95091807257, 0.132, 0.984, 0.046, 192.0, 0.0, 0.0, 0.0, 0.0, 0.0, 0.0, 0.0, 0.0, 0.0, 1.7417668510083249E9, 0.0, 2025-03-12 17:07:31.008
100.0, -11919.715931381696, -14528.410378505037, -84186.68320020237, -38348.93266545924, -12664.587815354804, -33644.80687913977, -15265.101524007503, -58629.810348726554, -37132.17075254569, -40500.82451114947, -71590.29055718072, -87244.42419343283, -12387.984977720378, -68792.52270370992, -16344.71313294329, -57073.234864858976, 0.132, 0.984, 0.046, 192.0, 0.0, 0.0, 0.0, 0.0, 0.0, 0.0, 0.0, 0.0, 0.0, 1.741766851448568E9, 0.0, 2025-03-12 17:07:31.448
102.0, -11939.899556624838, -14566.587158034703, -84401.3717056956, -38358.9015434863, -12816.311456717427, -33634.56978017924, -15365.438504867376, -58590.180705807295, -36894.795226430324, -40568.52794510459, -71656.92110740198, -87308.97603141976, -12460.27051928884, -68867.53515810193, -16227.21001234174, -57146.03449654991, 0.132, 0.984, 0.046, 192.0, 0.0, 0.0, 0.0, 0.0, 0.0, 0.0, 0.0, 0.0, 0.0, 1.7417668514486432E9, 0.0, 2025-03-12 17:07:31.448
104.0, -11949.130827084879, -14553.578442761713, -84252.73260506781, -38378.4593198847, -12681.21751322955, -33669.32674280724, -15276.16563751288, -58633.02899992812, -37194.21919515362, -40519.28705206955, -71605.10976375459, -87257.96935057275, -12430.229774740908, -68810.89583765219, -16346.277755055162, -57089.84221098926, 0.132, 0.984, 0.046, 192.0, 0.0, 0.0, 0.0, 0.0, 0.0, 0.0, 0.0, 0.0, 0.0, 1.7417668514486675E9, 0.0, 2025-03-12 17:07:31.448
106.0, -11960.731382457183, -14580.333480874717, -84344.7100335014, -38392.98795378065, -12815.417386939214, -33648.60667569717, -15294.516419710688, -58582.894037114864, -36871.25883951889, -40608.47051244623, -71689.95698570693, -87345.38702313746, -12487.8972754356, -68903.14148701924, -16201.617264940414, -57175.22587480854, 0.13, 0.978, 0.044, 192.0, 2.0, 8.0, 15.0, 72.0, 0.5, 48.0, 0.0, 0.0, 0.0, 1.7417668514486897E9, 0.0, 2025-03-12 17:07:31.448
108.0, -11980.713842000228, -14580.735812274912, -84293.14455904301, -38423.1181053064, -12699.814164616368, -33684.70474299249, -15221.023883941638, -58644.02605820013, -37242.36485271035, -40527.82541845148, -71609.93774055692, -87266.1500890434, -12469.747658937891, -68820.10475636777, -16320.528545442647, -57085.88595222068, 0.13, 0.978, 0.044, 192.0, 0.0, 0.0, 0.0, 0.0, 0.0, 0.0, 0.0, 0.0, 0.0, 1.741766851448714E9, 0.0, 2025-03-12 17:07:31.448
110.0, -11977.98692917668, -14579.819390752244, -84257.18060221442, -38441.4241840153, -12800.598180365347, -33685.397647070604, -15160.651822167853, -58615.99697065318, -36855.523211422355, -40646.58023674253, -71730.90538154905, -87384.27905848969, -12508.66204603458, -68941.67589446019, -16152.9128137723, -57206.47361355706, 0.13, 0.978, 0.044, 192.0, 0.0, 0.0, 0.0, 0.0, 0.0, 0.0, 0.0, 0.0, 0.0, 1.7417668514487944E9, 0.0, 2025-03-12 17:07:31.448
112.0, -11991.576789805507, -14594.817411281754, -84336.17166711947, -38455.75165221115, -12721.808281160389, -33698.51812106587, -15144.625621393398, -58657.772381040144, -37290.28699282253, -40539.87300871289, -71621.02420580677, -87276.61070544847, -12504.28110412134, -68835.41570131967, -16284.341071169505, -57094.133745924686, 0.13, 0.978, 0.044, 192.0, 0.0, 0.0, 0.0, 0.0, 0.0, 0.0, 0.0, 0.0, 0.0, 1.7417668514488156E9, 0.0, 2025-03-12 17:07:31.448
114.0, -11998.863458497937, -14605.009806753375, -84170.63464768346, -38504.99254524619, -12798.988854764564, -33720.33342365425, -15020.104053032883, -58634.16893889534, -36857.71368237897, -40669.11079515348, -71741.5895153987, -87398.76298889673, -12515.971066471466, -68954.25992658854, -16119.854583722901, -57211.68157001514, 0.13, 0.978, 0.044, 192.0, 0.0, 0.0, 0.0, 0.0, 0.0, 0.0, 0.0, 0.0, 0.0, 1.7417668514488363E9, 0.0, 2025-03-12 17:07:31.448
116.0, -11981.18322863379, -14591.241132168905, -84396.16374923752, -38461.697216236265, -12760.834426979354, -33686.403475571096, -15091.517876567588, -58618.567421265536, -37315.56681580148, -40558.15673567733, -71626.6568454095, -87284.88085089694, -12545.967107530489, -68851.1513294162, -16258.301288879073, -57099.922847738606, 0.128, 0.98, 0.044, 192.0, 2.0, 0.0, 15.0, 80.0, 0.5, 48.0, 0.0, 0.0, 0.0, 1.741766851448856E9, 0.0, 2025-03-12 17:07:31.448
118.0, -12013.146223204878, -14615.649237114101, -84120.00794649219, -38536.977891561735, -12793.222104695094, -33753.97279905949, -14931.971124645606, -58674.37972717044, -36869.358941240185, -40681.940696470825, -71743.71293112195, -87401.06521857563, -12518.13918568363, -68961.2336708586, -16127.0071419486, -57204.12668038925, 0.128, 0.98, 0.044, 192.0, 0.0, 0.0, 0.0, 0.0, 0.0, 0.0, 0.0, 0.0, 0.0, 1.7417668514488776E9, 0.0, 2025-03-12 17:07:31.448
120.0, -11970.409687806332, -14581.07108844174, -84470.39389257359, -38457.71860572322, -12803.168630977707, -33674.71351322097, -15086.913417209795, -58596.03686285459, -37334.00700497711, -40561.42009036781, -71623.99698781932, -87282.8021386626, -12572.543331687848, -68862.19309117712, -16264.157445926363, -57091.16096391213, 0.128, 0.98, 0.044, 192.0, 0.0, 0.0, 0.0, 0.0, 0.0, 0.0, 0.0, 0.0, 0.0, 1.7417668514488978E9, 0.0, 2025-03-12 17:07:31.448
122.0, -11991.912065972338, -14580.422887852537, -84115.8058185346, -38531.63582463692, -12778.000566721032, -33744.87563906618, -14900.52222019699, -58647.93761347981, -36889.60962171669, -40657.264370592166, -71720.51182037733, -87376.5230031637, -12498.827278474246, -68942.5699642384, -16157.405514407816, -57164.63114793672, 0.128, 0.98, 0.044, 192.0, 0.0, 0.0, 0.0, 0.0, 0.0, 0.0, 0.0, 0.0, 0.0, 1.741766851448918E9, 0.0, 2025-03-12 17:07:31.448
124.0, -11975.394126819865, -14577.874788984633, -84534.43164043804, -38464.84881220446, -12827.241459756073, -33687.43165581604, -15089.372109099879, -58603.16706933583, -37295.53965276953, -40558.2237909107, -71621.96297907388, -87277.46007173778, -12583.898017871144, -68858.37094287526, -16271.22059717424, -57072.89958869214, 0.128, 0.98, 0.044, 192.0, 0.0, 0.0, 0.0, 0.0, 0.0, 0.0, 0.0, 0.0, 0.0, 1.741766851448938E9, 0.0, 2025-03-12 17:07:31.448
126.0, -11996.538877074585, -14569.98462319191, -84111.84955976601, -38536.217932250256, -12759.940357201143, -33758.599610161735, -14876.158818740705, -58672.05514574709, -36921.81848547679, -40647.02727163163, -71715.54973310826, -87364.43070941338, -12511.94775246951, -68928.53306872047, -16195.269369515107, -57147.84498785079, 0.128, 0.98, 0.042, 192.0, 2.0, 0.0, 15.0, 80.0, 0.5, 40.0, 0.0, 0.0, 0.0, 1.7417668514489582E9, 0.0, 2025-03-12 17:07:31.448
128.0, -11979.506847799641, -14577.092477928696, -84571.40142576712, -38475.64470477637, -12855.002326369564, -33694.24893787491, -15090.422641089279, -58620.15439512186, -37269.34340826791, -40579.97203826571, -71651.57904047717, -87299.4541882818, -12627.349809092262, -68886.64589961123, -16267.21963491674, -57101.44276636157, 0.128, 0.98, 0.042, 192.0, 0.0, 0.0, 0.0, 0.0, 0.0, 0.0, 0.0, 0.0, 0.0, 1.7417668514489784E9, 0.0, 2025-03-12 17:07:31.448
130.0, -12018.465938385241, -14574.656137783068, -84092.98468744573, -38572.02542686766, -12767.271729382484, -33792.663668711626, -14852.220100429071, -58710.969532843774, -36973.942753546566, -40656.705576980785, -71723.05991924524, -87371.13623274997, -12523.10127295271, -68939.75364443703, -16217.576410481503, -57156.2939472549, 0.128, 0.98, 0.042, 192.0, 0.0, 0.0, 0.0, 0.0, 0.0, 0.0, 0.0, 0.0, 0.0, 1.7417668514489975E9, 0.0, 2025-03-12 17:07:31.448
132.0, -11995.287179385088, -14570.655175525568, -84583.20314683953, -38487.982867715706, -12895.704853022678, -33715.86307476319, -15083.761821241596, -58605.58105773701, -37242.253093988074, -40614.08080030451, -71670.913299431, -87320.46482806979, -12643.733637778001, -68913.24447551304, -16253.69682952128, -57116.26197293544, 0.128, 0.98, 0.042, 192.0, 0.0, 0.0, 0.0, 0.0, 0.0, 0.0, 0.0, 0.0, 0.0, 1.7417668514490263E9, 0.0, 2025-03-12 17:07:31.449
134.0, -12011.559249348551, -14557.668811997035, -84107.82624576405, -38563.04002559662, -12765.61770029279, -33796.217596080016, -14836.775045010454, -58686.76259359868, -37042.741422980005, -40658.873696192946, -71719.77421281031, -87372.34322695056, -12539.060418493798, -68947.48734801858, -16234.317867078527, -57149.54372042939, 0.128, 0.98, 0.042, 192.0, 0.0, 0.0, 0.0, 0.0, 0.0, 0.0, 0.0, 0.0, 0.0, 1.7417668514490457E9, 0.0, 2025-03-12 17:07:31.449
136.0, -11997.209429408245, -14565.849550467678, -84573.12251009018, -38496.632992819905, -12891.189800642705, -33728.38005165816, -15026.92133509175, -58619.059159643555, -37191.24641314107, -40610.638631658396, -71668.94634591894, -87323.2587961267, -12639.173881909119, -68922.47574597309, -16219.744529693668, -57095.16192616963, 0.132, 0.976, 0.044, 192.0, 2.0, 16.0, 15.0, 64.0, 0.5, 48.0, 0.0, 0.0, 0.0, 1.7417668514490652E9, 0.0, 2025-03-12 17:07:31.449
138.0, -12015.157880205856, -14555.388934062594, -84111.98367023274, -38569.902011144404, -12752.385467575248, -33807.952261919054, -14760.153265017661, -58705.02396881866, -37095.513891638984, -40662.919361939355, -71718.52251512081, -87366.48706990326, -12555.265433223896, -68948.76139745253, -16219.319846549017, -57110.696388566066, 0.132, 0.976, 0.044, 192.0, 0.0, 0.0, 0.0, 0.0, 0.0, 0.0, 0.0, 0.0, 0.0, 1.741766851449085E9, 0.0, 2025-03-12 17:07:31.449
140.0, -11986.078260669501, -14563.949652188976, -84543.72996613145, -38503.830254534514, -12902.388024614815, -33722.38978414414, -14929.333618799881, -58599.188458822784, -37142.229037550576, -40631.80573365757, -71694.78496250928, -87336.66984279989, -12658.485789118504, -68938.30078104744, -16166.703840101223, -57087.11529816572, 0.132, 0.976, 0.044, 192.0, 0.0, 0.0, 0.0, 0.0, 0.0, 0.0, 0.0, 0.0, 0.0, 1.741766851449104E9, 0.0, 2025-03-12 17:07:31.449
142.0, -12011.402787137366, -14547.968154903432, -84151.4121474519, -38581.48021477225, -12750.7090867411, -33806.298232829366, -14695.512020052913, -58704.979265329755, -37163.53025001648, -40644.590931486004, -71700.39525036755, -87344.96233999281, -12569.10116304173, -68926.90139137524, -16207.920456876811, -57080.49918180695, 0.132, 0.976, 0.044, 192.0, 0.0, 0.0, 0.0, 0.0, 0.0, 0.0, 0.0, 0.0, 0.0, 1.7417668514491231E9, 0.0, 2025-03-12 17:07:31.449
144.0, -11991.621493294419, -14556.350059074171, -84503.2956604118, -38528.663042624365, -12918.995370745108, -33742.81927857629, -14832.684675775132, -58611.54897350657, -37087.33315316834, -40668.68611200883, -71716.75672730884, -87364.78833732466, -12668.186446212107, -68965.43579881618, -16124.727264014158, -57115.859641535244, 0.132, 0.976, 0.044, 192.0, 0.0, 0.0, 0.0, 0.0, 0.0, 0.0, 0.0, 0.0, 0.0, 1.7417668514491425E9, 0.0, 2025-03-12 17:07:31.449
146.0, -11997.097670685967, -14531.897250640066, -84200.69774397585, -38578.28391531514, -12766.24354913754, -33807.43817179658, -14662.207920814506, -58698.94429432682, -37232.15010549428, -40624.27319577613, -71670.2203953529, -87317.93908094634, -12578.935930602067, -68909.17645802218, -16213.687206946279, -57052.939480893554, 0.132, 0.982, 0.048, 192.0, 2.0, 16.0, 15.0, 88.0, 0.5, 64.0, 0.0, 0.0, 0.0, 1.7417668514491613E9, 0.0, 2025-03-12 17:07:31.449
148.0, -12000.159859676345, -14555.634803251602, -84441.33662478169, -38563.755281419195, -12933.389894174326, -33777.39742724865, -14773.005518079462, -58648.474055346735, -37022.31192854785, -40695.7540745442, -71738.57202989722, -87391.29750624867, -12669.885178790712, -68991.40852587325, -16104.253066093097, -57130.12005449773, 0.132, 0.982, 0.048, 192.0, 0.0, 0.0, 0.0, 0.0, 0.0, 0.0, 0.0, 0.0, 0.0, 1.741766851449181E9, 0.0, 2025-03-12 17:07:31.449
150.0, -11989.408670593342, -14530.64555295057, -84245.62475033102, -38580.809662438594, -12794.764375062512, -33811.12620963171, -14689.745269983445, -58713.987018345244, -37283.04502761901, -40636.11962033744, -71683.43027632598, -87338.63679631196, -12616.710378731535, -68928.89069663176, -16229.556945509548, -57068.116315378706, 0.132, 0.982, 0.048, 192.0, 0.0, 0.0, 0.0, 0.0, 0.0, 0.0, 0.0, 0.0, 0.0, 1.7417668514492066E9, 0.0, 2025-03-12 17:07:31.449
152.0, -11981.674967011806, -14543.028419378808, -84401.28229871778, -38569.834955911036, -12914.927353254243, -33780.05728483883, -14795.26785555695, -58633.61014528396, -36991.26535549943, -40682.85711799349, -71725.56331462423, -87385.03901780117, -12651.959079737555, -68982.06549669094, -16121.776833746057, -57125.67205735113, 0.132, 0.982, 0.048, 192.0, 0.0, 0.0, 0.0, 0.0, 0.0, 0.0, 0.0, 0.0, 0.0, 1.741766851449226E9, 0.0, 2025-03-12 17:07:31.449
154.0, -11972.622510507406, -14525.214079047928, -84340.5526090327, -38588.990400909235, -12795.256113440528, -33813.74136373298, -14801.92867540463, -58683.9015703084, -37326.18389441775, -40613.32084099303, -71653.63540096706, -87315.94977568982, -12617.917372932121, -68907.72359463258, -16270.527693096126, -57043.10471333322, 0.132, 0.982, 0.048, 192.0, 0.0, 0.0, 0.0, 0.0, 0.0, 0.0, 0.0, 0.0, 0.0, 1.7417668514492528E9, 0.0, 2025-03-12 17:07:31.449
156.0, -11958.406801033832, -14534.333590785694, -84377.43298738396, -38596.8582149575, -12911.194611930207, -33793.20011057855, -14887.04411829044, -58633.118406905945, -36957.17894520509, -40691.015504719675, -71739.66726537554, -87402.71924766531, -12641.990201710487, -68986.89347349328, -16154.34332541744, -57128.28721145239, 0.136, 0.982, 0.046, 192.0, 2.0, 32.0, 15.0, 88.0, 0.5, 56.0, 0.0, 0.0, 0.0, 1.7417668514492729E9, 0.0, 2025-03-12 17:07:31.449
158.0, -11934.69160016675, -14510.640741663068, -84466.08000589372, -38575.06526411358, -12825.073340543908, -33765.93098234308, -15008.414090682756, -58623.529508534615, -37361.25378146813, -40581.02257025511, -71638.14564205952, -87300.41531329339, -12628.512099803937, -68876.34174541733, -16319.478013453248, -57011.11936701767, 0.136, 0.982, 0.046, 192.0, 0.0, 0.0, 0.0, 0.0, 0.0, 0.0, 0.0, 0.0, 0.0, 1.7417668514492924E9, 0.0, 2025-03-12 17:07:31.449
160.0, -11965.447600537253, -14527.091625582174, -84370.81687102519, -38613.599671554526, -12891.346262853893, -33794.474160012505, -15049.787169669531, -58634.303049362075, -36918.55513078632, -40651.83289668953, -71718.94719826546, -87382.69208463337, -12602.897000658155, -68940.84887991534, -16202.600741696448, -57086.80237374335, 0.136, 0.982, 0.046, 192.0, 0.0, 0.0, 0.0, 0.0, 0.0, 0.0, 0.0, 0.0, 0.0, 1.7417668514493113E9, 0.0, 2025-03-12 17:07:31.449
162.0, -11994.37075786242, -14545.062428124242, -84527.01086127888, -38616.036011700155, -12867.720468964633, -33807.30406132985, -15203.522468033132, -58665.08140147703, -37354.816479065004, -40603.19550075477, -71672.99201166535, -87333.58530206505, -12667.314728178351, -68903.23089399707, -16342.768531175678, -57032.889966117145, 0.136, 0.982, 0.046, 192.0, 0.0, 0.0, 0.0, 0.0, 0.0, 0.0, 0.0, 0.0, 0.0, 1.74176685144933E9, 0.0, 2025-03-12 17:07:31.449
164.0, -12000.495135843175, -14545.464759524437, -84295.37973348853, -38661.36534945552, -12908.60180957339, -33855.04738748639, -15188.703261459264, -58671.56340736907, -36936.39182286165, -40686.45574885079, -71767.04815233329, -87424.40043978697, -12620.107843888742, -68986.08881069289, -16220.549192494058, -57113.22213568952, 0.135, 0.981, 0.046, 192.0, 2.0, 24.0, 15.0, 80.0, 0.5, 56.0, 0.0, 0.0, 0.0, 1.7417668514493492E9, 0.0, 2025-03-12 17:07:31.449
166.0, -11980.84795246696, -14532.21017506244, -84591.0709608878, -38607.43059008486, -12905.651379305289, -33813.98723292199, -15417.965104337349, -58644.3389826225, -37390.08753181547, -40599.41805594183, -71682.91618620351, -87340.5143428462, -12672.589739869803, -68913.17742027968, -16361.275775584672, -57035.6615824296, 0.135, 0.981, 0.046, 192.0, 0.0, 0.0, 0.0, 0.0, 0.0, 0.0, 0.0, 0.0, 0.0, 1.7417668514493687E9, 0.0, 2025-03-12 17:07:31.449
168.0, -11986.748813003162, -14524.454119736449, -84264.53432614022, -38661.074776777605, -12887.7923354855, -33859.830660799824, -15344.494920312754, -58676.97252952725, -36961.40342490714, -40673.71525451127, -71772.77019891384, -87427.03794563269, -12594.984483120978, -68984.83711300339, -16258.971841212731, -57112.372769400215, 0.135, 0.981, 0.046, 192.0, 0.0, 0.0, 0.0, 0.0, 0.0, 0.0, 0.0, 0.0, 0.0, 1.7417668514493883E9, 0.0, 2025-03-12 17:07:31.449
170.0, -11956.104571354936, -14503.666997393013, -84664.25057223446, -38589.86211894299, -12907.93125723973, -33793.53538674538, -15614.526345077318, -58630.659715015856, -37382.80086312305, -40548.45607858373, -71661.79378769324, -87311.6135372655, -12647.488730846493, -68883.38254492075, -16382.644043283946, -57005.57613439276, 0.135, 0.981, 0.046, 192.0, 0.0, 0.0, 0.0, 0.0, 0.0, 0.0, 0.0, 0.0, 0.0, 1.7417668514494083E9, 0.0, 2025-03-12 17:07:31.449
172.0, -11958.406801033832, -14486.098526251142, -84274.23498323381, -38642.85810504653, -12842.373590752315, -33836.94247447759, -15501.962960000392, -58674.80441031509, -36981.40823619464, -40615.578367183014, -71739.7790240978, -87385.53075617919, -12558.372325703183, -68941.89941190474, -16305.664635379868, -57069.54682702385, 0.135, 0.981, 0.046, 192.0, 0.0, 0.0, 0.0, 0.0, 0.0, 0.0, 0.0, 0.0, 0.0, 1.7417668514494271E9, 0.0, 2025-03-12 17:07:31.449
174.0, -11951.45540850823, -14489.808915830723, -84725.002613664, -38577.50160425921, -12918.078949222441, -33785.57816571929, -15775.190684222065, -58620.46731954424, -37338.90203701282, -40528.71948822969, -71664.52070051679, -87308.5066447862, -12657.703478062569, -68880.29800418593, -16389.662491042913, -57007.297218715816, 0.1355, 0.9804999999999999, 0.046, 192.0, 2.0, 32.0, 15.0, 80.0, 0.5, 56.0, 0.0, 0.0, 0.0, 1.7417668514494536E9, 0.0, 2025-03-12 17:07:31.449
176.0, -11959.345574300954, -14474.09563947864, -84283.98034381632, -38649.675387105395, -12825.341561477371, -33850.77820429542, -15614.99573171088, -58683.40983193038, -37019.3391465353, -40607.978774068215, -71748.49620443537, -87395.7231516508, -12572.945663088043, -68947.15207185174, -16326.608219934491, -57068.5186467789, 0.1355, 0.9804999999999999, 0.046, 192.0, 0.0, 0.0, 0.0, 0.0, 0.0, 0.0, 0.0, 0.0, 0.0, 1.7417668514494734E9, 0.0, 2025-03-12 17:07:31.449
180.0, -11940.212481047212, -14444.926612964466, -84332.99771940682, -38640.242950945256, -12801.089918743362, -33829.52169531843, -15714.282180581355, -58699.57014317157, -37057.2477051315, -40551.67472978529, -71696.64015729907, -87353.56776160811, -12548.716372098492, -68907.83535335487, -16351.396304535427, -57027.994934081435, 0.1355, 0.9804999999999999, 0.046, 192.0, 0.0, 0.0, 0.0, 0.0, 0.0, 0.0, 0.0, 0.0, 0.0, 1.7417668514494944E9, 0.0, 2025-03-12 17:07:31.449
182.0, -11950.874263152393, -14480.443534903949, -84803.27842274647, -38602.22263362678, -12945.303373969004, -33778.8726423827, -15948.0143723505, -58636.20294764078, -37234.89937006228, -40538.8671802124, -71682.13387514757, -87340.17906667937, -12687.364242954762, -68921.4699174726, -16346.747141688722, -57026.49736720292, 0.1355, 0.9804999999999999, 0.046, 192.0, 0.0, 0.0, 0.0, 0.0, 0.0, 0.0, 0.0, 0.0, 0.0, 1.7417668514495132E9, 0.0, 2025-03-12 17:07:31.449
184.0, -11983.105478656946, -14476.666090091001, -84327.96857690437, -38693.23893704879, -12808.309532202427, -33871.47591966104, -15714.863325937193, -58752.789646719655, -37113.551749414415, -40602.12261702092, -71743.02002704382, -87400.19350054188, -12610.898925173155, -68954.08111263289, -16340.622763707968, -57072.29609159185, 0.13675, 0.98025, 0.047, 192.0, 2.0, 40.0, 15.0, 80.0, 0.5, 64.0, 0.0, 0.0, 0.0, 1.7417668514495327E9, 0.0, 2025-03-12 17:07:31.449
186.0, -11962.56422550252, -14486.098526251142, -84778.78091082347, -38628.843561273046, -12966.917510857285, -33787.56747097582, -15938.20195653462, -58666.82483754455, -37207.76435229354, -40581.80488131105, -71719.26012268783, -87379.74165436527, -12718.61198170328, -68943.6204962278, -16307.206905747284, -57066.506989777925, 0.13675, 0.98025, 0.047, 192.0, 0.0, 0.0, 0.0, 0.0, 0.0, 0.0, 0.0, 0.0, 0.0, 1.7417668514495525E9, 0.0, 2025-03-12 17:07:31.449
188.0, -11965.782876704083, -14462.159807939508, -84362.74789127683, -38692.65779169295, -12813.316322960416, -33847.69366356059, -15731.716541256494, -58752.70023974183, -37198.19780566666, -40587.214003469235, -71732.91703855003, -87392.63861091598, -12622.991218923476, -68937.85374615833, -16345.674257954868, -57062.37191705369, 0.13675, 0.98025, 0.047, 192.0, 0.0, 0.0, 0.0, 0.0, 0.0, 0.0, 0.0, 0.0, 0.0, 1.7417668514495716E9, 0.0, 2025-03-12 17:07:31.449
190.0, -11946.828597405982, -14476.822552302188, -84748.76251801998, -38638.7230323223, -12959.720249142678, -33769.03787482237, -15910.932828299145, -58647.60233731298, -37145.89472364125, -40576.82044229752, -71720.62357909961, -87380.9262968214, -12707.480812964537, -68941.65354271574, -16274.685117564812, -57059.75676295242, 0.13675, 0.98025, 0.047, 192.0, 0.0, 0.0, 0.0, 0.0, 0.0, 0.0, 0.0, 0.0, 0.0, 1.7417668514495904E9, 0.0, 2025-03-12 17:07:31.449
192.0, -11979.75271698865, -14480.48823839286, -84394.93440329247, -38727.124181643034, -12815.931477061687, -33853.16984095214, -15724.809852219803, -58762.31148985762, -37251.03732955901, -40587.86220405844, -71725.51861113533, -87386.33541897958, -12640.783207509901, -68932.95871412262, -16340.734522430244, -57045.83162615677, 0.13675, 0.98025, 0.047, 192.0, 0.0, 0.0, 0.0, 0.0, 0.0, 0.0, 0.0, 0.0, 0.0, 1.7417668514496093E9, 0.0, 2025-03-12 17:07:31.449
194.0, -11971.996661662659, -14505.209267760429, -84681.57317418733, -38698.08926559559, -12975.589987705946, -33791.23315706648, -15858.674449762637, -58675.43025915984, -37096.18444397264, -40632.453934246776, -71761.72843715292, -87426.05446887667, -12726.412740518183, -68986.02175545953, -16234.206108356251, -57097.91119073763, 0.13337500000000002, 0.977125, 0.0455, 192.0, 2.0, 8.0, 15.0, 56.0, 0.5, 48.0, 0.0, 0.0, 0.0, 1.741766851449628E9, 0.0, 2025-03-12 17:07:31.449
196.0, -11977.383432076387, -14485.584436128669, -84453.1383458541, -38735.95312070288, -12833.231727270095, -33839.155297178666, -15739.897279727136, -58741.90434716992, -37321.266510637586, -40591.41613142683, -71709.2241894274, -87379.71930262081, -12667.98528051201, -68931.61760945531, -16337.202946806306, -57043.88702438916, 0.13337500000000002, 0.977125, 0.0455, 192.0, 0.0, 0.0, 0.0, 0.0, 0.0, 0.0, 0.0, 0.0, 0.0, 1.741766851449648E9, 0.0, 2025-03-12 17:07:31.449
198.0, -11985.47476356921, -14513.30059925325, -84622.63162405869, -38737.7412602593, -12975.746449917133, -33840.71991929053, -15821.347036522275, -58701.17946877235, -37047.03295791542, -40663.88048695093, -71779.87805365062, -87454.28472212372, -12733.319429554873, -69015.41429941825, -16210.87088714491, -57122.296943938374, 0.13337500000000002, 0.977125, 0.0455, 192.0, 0.0, 0.0, 0.0, 0.0, 0.0, 0.0, 0.0, 0.0, 0.0, 1.7417668514496744E9, 0.0, 2025-03-12 17:07:31.449
200.0, -11989.363967104431, -14494.972168799899, -84499.76408478786, -38758.05899596918, -12856.16461708124, -33880.528376165435, -15768.373402163197, -58760.23277762327, -37373.21196475172, -40610.482169447205, -71724.15515472354, -87399.41118948594, -12709.17954554314, -68959.73610398007, -16340.622763707968, -57060.851998430735, 0.13337500000000002, 0.977125, 0.0455, 192.0, 0.0, 0.0, 0.0, 0.0, 0.0, 0.0, 0.0, 0.0, 0.0, 1.7417668514496937E9, 0.0, 2025-03-12 17:07:31.449
202.0, -11981.049118167057, -14505.96922707191, -84563.73477741895, -38753.275722655744, -12976.126429572872, -33859.98712301101, -15821.078815588811, -58714.4564049788, -37033.6889664756, -40679.37024585846, -71785.57774848673, -87464.00773096178, -12727.262106807484, -69027.48424142411, -16209.887410388877, -57137.20555749006, 0.13337500000000002, 0.977125, 0.0455, 192.0, 0.0, 0.0, 0.0, 0.0, 0.0, 0.0, 0.0, 0.0, 0.0, 1.7417668514497125E9, 0.0, 2025-03-12 17:07:31.449
204.0, -11980.624435022406, -14490.166543742007, -84575.49179500244, -38758.84130702511, -12882.27145460504, -33871.25240221649, -15843.810539699858, -58771.98979520676, -37420.77647695261, -40592.667829116326, -71708.1289539491, -87388.90586959194, -12712.554658955893, -68949.6778189752, -16354.57025224808, -57062.170751353595, 0.1306875, 0.9765625, 0.04675, 192.0, 2.0, 0.0, 15.0, 64.0, 0.5, 64.0, 0.0, 0.0, 0.0, 1.741766851449731E9, 0.0, 2025-03-12 17:07:31.449
206.0, -11980.42326932231, -14496.82736358969, -84507.83306453623, -38771.82767055365, -12972.818371393487, -33859.04834974388, -15836.23329832951, -58742.75371345922, -37016.27695754492, -40679.12437666945, -71801.8498184502, -87478.02227473525, -12719.7519206705, -69037.65428515128, -16217.263486059128, -57157.41153447766, 0.1306875, 0.9765625, 0.04675, 192.0, 0.0, 0.0, 0.0, 0.0, 0.0, 0.0, 0.0, 0.0, 0.0, 1.741766851449751E9, 0.0, 2025-03-12 17:07:31.449
208.0, -11969.627376750395, -14490.188895486463, -84647.75498482645, -38752.67222555545, -12918.615391089368, -33835.869590743736, -15924.165061016687, -58756.1200566435, -37448.917323221845, -40590.36559943743, -71714.92388426351, -87384.70374163434, -12747.535139028447, -68946.72738870709, -16361.90162442942, -57057.074553617786, 0.1306875, 0.9765625, 0.04675, 192.0, 0.0, 0.0, 0.0, 0.0, 0.0, 0.0, 0.0, 0.0, 0.0, 1.7417668514497697E9, 0.0, 2025-03-12 17:07:31.449
210.0, -11987.911103714838, -14492.938160054466, -84454.94883715497, -38802.74013313534, -12957.015688063586, -33859.5400881219, -15859.747333496493, -58737.6128122345, -37012.387754009695, -40687.93096398484, -71808.6000452757, -87481.86677478156, -12716.46621423557, -69037.9448578292, -16232.35091356646, -57148.06850529534, 0.1306875, 0.9765625, 0.04675, 192.0, 0.0, 0.0, 0.0, 0.0, 0.0, 0.0, 0.0, 0.0, 0.0, 1.7417668514497888E9, 0.0, 2025-03-12 17:07:31.449
212.0, -11995.153068918356, -14501.454174691937, -84700.72861918552, -38789.86552832908, -12952.500635683613, -33848.163050194154, -16009.302855646953, -58751.94028043035, -37464.5411925961, -40613.72317239323, -71729.11724199263, -87402.6745441764, -12779.67694755518, -68971.13549365228, -16364.852054697521, -57071.58083576928, 0.1306875, 0.9765625, 0.04675, 192.0, 0.0, 0.0, 0.0, 0.0, 0.0, 0.0, 0.0, 0.0, 0.0, 1.7417668514498076E9, 0.0, 2025-03-12 17:07:31.449
214.0, -11978.813943721527, -14473.134514467063, -84410.670031389, -38810.71970590588, -12944.454007679702, -33864.94921028009, -15902.282703194942, -58739.0656756241, -37038.42753630013, -40697.29634491162, -71813.71859475596, -87486.15830971698, -12732.134787098741, -69043.71160789867, -16253.227442887717, -57147.040325050395, 0.12934375, 0.97328125, 0.046375, 192.0, 2.0, 0.0, 15.0, 40.0, 0.5, 56.0, 0.0, 0.0, 0.0, 1.7417668514498267E9, 0.0, 2025-03-12 17:07:31.449
216.0, -11961.536045257575, -14461.779828283767, -84775.31639043288, -38753.25337091129, -12946.353905958404, -33794.00477337895, -16082.9965571161, -58698.98899781573, -37453.90176223538, -40578.56387836503, -71695.61197705413, -87369.63866587146, -12782.694433056646, -68943.28522006098, -16370.19412162234, -57037.40501849711, 0.12934375, 0.97328125, 0.046375, 192.0, 0.0, 0.0, 0.0, 0.0, 0.0, 0.0, 0.0, 0.0, 0.0, 1.7417668514498465E9, 0.0, 2025-03-12 17:07:31.449
218.0, -11988.313435115033, -14462.562139339703, -84381.45630138592, -38834.859589917614, -12915.709664310178, -33843.02214896943, -15889.788078044425, -58766.0218794372, -37034.5383327649, -40684.51114708318, -71802.6991847395, -87475.60828633407, -12719.595458459313, -69033.02747404903, -16263.017506959142, -57130.65649636466, 0.12934375, 0.97328125, 0.046375, 192.0, 0.0, 0.0, 0.0, 0.0, 0.0, 0.0, 0.0, 0.0, 0.0, 1.741766851449865E9, 0.0, 2025-03-12 17:07:31.449
220.0, -11961.334879557477, -14455.163711924997, -84814.23077752958, -38756.628484324036, -12972.6619091823, -33762.75703463043, -16077.90035938029, -58706.38742523044, -37425.96208166624, -40602.07791353201, -71714.8791807746, -87388.70470389184, -12811.192907237162, -68969.86144421833, -16348.334115545049, -57054.50410300543, 0.12934375, 0.97328125, 0.046375, 192.0, 0.0, 0.0, 0.0, 0.0, 0.0, 0.0, 0.0, 0.0, 0.0, 1.7417668514498916E9, 0.0, 2025-03-12 17:07:31.449
222.0, -11991.375624105409, -14459.00821197131, -84357.31641737418, -38852.18219187047, -12881.176219126728, -33861.104710233776, -15817.860164387246, -58802.879906044, -37077.29721990791, -40698.61509783448, -71811.1034406547, -87484.1019492271, -12734.928755155654, -69045.70091315519, -16267.51020759466, -57134.90332781117, 0.12934375, 0.97328125, 0.046375, 192.0, 0.0, 0.0, 0.0, 0.0, 0.0, 0.0, 0.0, 0.0, 0.0, 1.741766851464158E9, 0.0, 2025-03-12 17:07:31.464
224.0, -11955.65753646583, -14459.276432904773, -84843.66802497722, -38766.843231540115, -12994.499563515135, -33763.38288347517, -15993.321358361407, -58714.32229451207, -37400.59285170947, -40620.78632364111, -71719.28247443229, -87400.9311081089, -12826.414445211227, -68984.52418858101, -16314.873554095455, -57064.09300137675, 0.132671875, 0.9706406249999999, 0.0451875, 192.0, 2.0, 32.0, 15.0, 32.0, 0.5, 48.0, 0.0, 0.0, 0.0, 1.741766851767656E9, 0.0, 2025-03-12 17:07:31.767
226.0, -11967.03457439358, -14438.221089627874, -84368.53699309075, -38846.326034823185, -12893.916713466253, -33844.76558503695, -15695.43966000553, -58799.48244088679, -37127.70040365463, -40690.52376634166, -71783.83431241922, -87468.83570776413, -12710.922981610654, -69032.37927345982, -16257.40721910086, -57105.1308041967, 0.132671875, 0.9706406249999999, 0.0451875, 192.0, 0.0, 0.0, 0.0, 0.0, 0.0, 0.0, 0.0, 0.0, 0.0, 1.741766851767846E9, 0.0, 2025-03-12 17:07:31.767
228.0, -11960.597271990451, -14457.711810792902, -84855.20152511615, -38788.926755061955, -13021.299305117049, -33775.89986037015, -15857.065124161856, -58734.19299533284, -37351.35195867443, -40632.9903761137, -71728.53609663679, -87414.23039605981, -12820.91591607522, -68998.0916974654, -16269.521864595637, -57061.38844029766, 0.132671875, 0.9706406249999999, 0.0451875, 192.0, 0.0, 0.0, 0.0, 0.0, 0.0, 0.0, 0.0, 0.0, 0.0, 1.7417668517679026E9, 0.0, 2025-03-12 17:07:31.767
230.0, -11999.176382920312, -14462.33862189515, -84366.32417038968, -38892.41533189003, -12905.070233949451, -33882.65179188869, -15554.713076914917, -58857.14994158148, -37190.06177068493, -40706.259394438195, -71806.0519464078, -87492.52855688674, -12750.016182662986, -69054.48514872613, -16250.142902152886, -57121.045246248876, 0.132671875, 0.9706406249999999, 0.0451875, 192.0, 0.0, 0.0, 0.0, 0.0, 0.0, 0.0, 0.0, 0.0, 0.0, 1.7417668517679558E9, 0.0, 2025-03-12 17:07:31.767
232.0, -11983.619568779419, -14479.661223848014, -84814.05196357393, -38835.30662480672, -13071.791895841587, -33806.38763980718, -15723.781671974859, -58769.553455061134, -37316.974975702164, -40694.792949532624, -71786.31535605376, -87473.64133282201, -12870.939120166198, -69053.45696848119, -16228.21584084223, -57106.40485363065, 0.132671875, 0.9706406249999999, 0.0451875, 192.0, 0.0, 0.0, 0.0, 0.0, 0.0, 0.0, 0.0, 0.0, 0.0, 1.7417668517680078E9, 0.0, 2025-03-12 17:07:31.768
234.0, -11990.459202582742, -14462.897415506533, -84389.70409508992, -38901.914823283536, -12921.6999318242, -33870.246573715995, -15490.92119823947, -58856.43468575891, -37277.88177464983, -40699.88914726843, -71795.92660616954, -87484.77250156076, -12772.09970618483, -69045.49974745509, -16261.765809269646, -57099.16288842713, 0.134, 0.972, 0.04, 192.0, 2.0, 24.0, 15.0, 48.0, 0.5, 32.0, 0.0, 0.0, 0.0, 1.7417668517680602E9, 0.0, 2025-03-12 17:07:31.768
236.0, -11981.831429222993, -14491.239427475863, -84801.8702628458, -38859.178287884984, -13086.007605315162, -33813.87547419971, -15686.141334312122, -58782.18219067839, -37275.892469393315, -40704.024219992665, -71789.42224853304, -87480.3468561586, -12867.429896286714, -69057.1450063163, -16220.795061683068, -57105.868411763724, 0.134, 0.972, 0.04, 192.0, 0.0, 0.0, 0.0, 0.0, 0.0, 0.0, 0.0, 0.0, 0.0, 1.7417668517681158E9, 0.0, 2025-03-12 17:07:31.768
238.0, -11963.860626680926, -14447.497063576826, -84461.07321513572, -38887.855576021146, -12922.594001602412, -33845.70435830407, -15530.304971969721, -58841.39196174049, -37353.94476103124, -40690.68022855285, -71779.56512922826, -87468.7910042752, -12790.539895360458, -69030.65818913677, -16306.357539457982, -57079.8733329622, 0.134, 0.972, 0.04, 192.0, 0.0, 0.0, 0.0, 0.0, 0.0, 0.0, 0.0, 0.0, 0.0, 1.741766851768168E9, 0.0, 2025-03-12 17:07:31.768
240.0, -11954.830521920983, -14461.95864223941, -84800.46210294511, -38847.376566812585, -13061.219520714227, -33776.25748828143, -15703.799212431815, -58722.48068123826, -37214.49222737458, -40699.28565016814, -71777.97815537192, -87468.81335601966, -12851.962489123642, -69046.25970676658, -16235.92719267931, -57090.289245878375, 0.134, 0.972, 0.04, 192.0, 0.0, 0.0, 0.0, 0.0, 0.0, 0.0, 0.0, 0.0, 0.0, 1.7417668517682192E9, 0.0, 2025-03-12 17:07:31.768
242.0, -11961.647803979851, -14440.232746628852, -84551.955408091, -38892.54944235676, -12906.590152572413, -33821.54212254788, -15596.600246024162, -58804.310417689136, -37394.02143883961, -40660.86300144947, -71739.15317525306, -87430.45776253435, -12782.225046423084, -68992.4367061182, -16342.455606753303, -57034.409884740104, 0.134, 0.972, 0.04, 192.0, 0.0, 0.0, 0.0, 0.0, 0.0, 0.0, 0.0, 0.0, 0.0, 1.7417668517682943E9, 0.0, 2025-03-12 17:07:31.768
244.0, -11985.385356591387, -14478.72245058089, -84759.33489314734, -38902.49596863937, -13051.898843276364, -33809.44982879756, -15708.604837489705, -58781.95867323383, -37151.862639410814, -40723.313775457595, -71804.26380685136, -87498.47412091185, -12853.281242046505, -69069.41611402227, -16235.994247912677, -57109.645856576666, 0.136, 0.974, 0.038, 192.0, 2.0, 32.0, 15.0, 56.0, 0.5, 24.0, 0.0, 0.0, 0.0, 1.7417668517683172E9, 0.0, 2025-03-12 17:07:31.768
246.0, -11996.874153241415, -14474.229749945373, -84595.65306850112, -38936.49297195589, -12929.41128366128, -33859.137756721706, -15629.502013862375, -58857.41816251495, -37453.857058746464, -40693.049513465114, -71782.76142868536, -87477.37407414605, -12845.547538464969, -69042.48226195363, -16350.90456615741, -57078.91220795062, 0.136, 0.974, 0.038, 192.0, 0.0, 0.0, 0.0, 0.0, 0.0, 0.0, 0.0, 0.0, 0.0, 1.7417668517683403E9, 0.0, 2025-03-12 17:07:31.768
248.0, -11976.779934976094, -14466.473694619383, -84697.93465112861, -38923.864236338646, -13066.852160316965, -33822.927930704114, -15679.659328420083, -58800.44356589837, -37148.91220914271, -40761.35644452053, -71848.85553703971, -87543.1105545891, -12883.657262761268, -69115.52776283358, -16219.319846549017, -57145.54275817189, 0.136, 0.974, 0.038, 192.0, 0.0, 0.0, 0.0, 0.0, 0.0, 0.0, 0.0, 0.0, 0.0, 1.741766851768364E9, 0.0, 2025-03-12 17:07:31.768
250.0, -11951.768332930606, -14437.081150660653, -84684.92593585563, -38910.90022455457, -12950.243109493627, -33819.418706824625, -15663.834293345726, -58834.507624448255, -37519.95116710081, -40654.671568235346, -71738.19205024149, -87437.27504459323, -12836.696247660668, -69007.14415396978, -16363.220377352283, -57031.79473063883, 0.136, 0.974, 0.038, 192.0, 0.0, 0.0, 0.0, 0.0, 0.0, 0.0, 0.0, 0.0, 0.0, 1.741766851768387E9, 0.0, 2025-03-12 17:07:31.768
252.0, -11993.879019484404, -14480.175313970485, -84647.24089470398, -38959.649379211594, -13050.244814186672, -33850.465279873046, -15627.80328128377, -58829.769054623735, -37110.71307786859, -40766.76556667871, -71845.27925792686, -87548.98906338085, -12855.762285681045, -69113.78432676606, -16214.804794169046, -57140.759484858456, 0.136, 0.974, 0.038, 192.0, 0.0, 0.0, 0.0, 0.0, 0.0, 0.0, 0.0, 0.0, 0.0, 1.74176685176841E9, 0.0, 2025-03-12 17:07:31.768
254.0, -11991.956769461247, -14468.48535162036, -84756.2503524125, -38944.763117404356, -12971.94665335973, -33835.06492794334, -15649.797397827793, -58836.22870877132, -37546.214466835794, -40683.43826334933, -71750.75373062537, -87460.76672801575, -12867.206378842162, -69034.43563394972, -16350.546938246125, -57054.77232393889, 0.13, 0.972, 0.038, 192.0, 2.0, 8.0, 15.0, 48.0, 0.5, 24.0, 0.0, 0.0, 0.0, 1.7417668517684326E9, 0.0, 2025-03-12 17:07:31.768
0.0, -12025.752607077671, -14493.407546688028, -84586.55590850781, -39001.313030876285, -13027.714255775722, -33868.167861481656, -15529.746178358339, -58841.995458840785, -37111.51774066898, -40803.55653805215, -71865.44053142554, -87578.60512478414, -12859.36091653835, -69147.17783298228, -16201.438450984771, -57163.17828454713, 0.13, 0.972, 0.038, 192.0, 0.0, 0.0, 0.0, 0.0, 0.0, 0.0, 0.0, 0.0, 0.0, 1.7417668517684555E9, 0.0, 2025-03-12 17:07:31.768
2.0, -12021.841051797994, -14496.58149440068, -84816.30948976392, -38965.729053703435, -12992.465554769702, -33845.503192603974, -15603.797507738771, -58845.839958887096, -37579.093882929556, -40710.81915030708, -71771.47379773544, -87483.4537486379, -12903.907943237775, -69062.33061102995, -16333.8054816491, -57062.8189519428, 0.13, 0.972, 0.038, 192.0, 0.0, 0.0, 0.0, 0.0, 0.0, 0.0, 0.0, 0.0, 0.0, 1.7417668517684782E9, 0.0, 2025-03-12 17:07:31.768
